timestamps,TP9,AF7,AF8,TP10,Right AUX
1605307691.678,140.137,0.000,-34.180,30.273,0.000
1605307691.682,45.410,-18.066,-49.316,0.488,0.000
1605307691.686,-154.297,-72.266,-71.289,-94.238,0.000
1605307691.690,-180.176,-72.266,-65.918,-106.934,0.000
1605307691.694,-15.625,-32.227,-55.176,-29.297,0.000
1605307691.698,137.207,14.160,-36.621,55.176,0.000
1605307691.702,222.168,134.277,96.680,165.039,0.000
1605307691.705,-63.477,17.578,7.324,-13.672,0.000
1605307691.709,-244.141,-107.910,-98.145,-153.320,0.000
1605307691.713,-43.945,-51.270,-43.945,-38.086,0.000
1605307691.717,106.934,-38.574,-38.086,30.762,0.000
1605307691.721,55.176,-51.270,-58.105,-20.508,0.000
1605307691.725,-134.277,-85.449,-78.613,-106.445,0.000
1605307691.729,-203.613,-78.125,-66.406,-104.492,0.000
1605307691.733,-48.828,-31.738,-45.898,-23.438,0.000
1605307691.737,126.953,14.160,-22.461,55.664,0.000
1605307691.741,93.750,-12.207,-33.203,17.090,0.000
1605307691.745,-110.352,-68.359,-74.219,-89.844,0.000
1605307691.748,-196.289,-65.918,-73.730,-111.328,0.000
1605307691.752,-75.195,-28.809,-62.012,-62.988,0.000
1605307691.756,182.129,51.270,24.414,91.309,0.000
1605307691.760,220.215,48.828,45.410,121.582,0.000
1605307691.764,-58.105,-47.852,-68.359,-58.105,0.000
1605307691.768,-197.754,-69.336,-87.891,-127.441,0.000
1605307691.772,-99.121,-37.598,-59.570,-69.824,0.000
1605307691.776,103.516,2.441,-35.645,34.180,0.000
1605307691.780,134.766,-6.348,-49.316,41.992,0.000
1605307691.784,-45.898,-48.340,-69.824,-48.340,0.000
1605307691.788,-195.312,-69.824,-76.172,-121.582,0.000
1605307691.791,-98.145,-29.785,-49.805,-55.664,0.000
1605307691.795,179.199,34.180,37.598,114.746,0.000
1605307691.799,187.012,21.484,-6.348,82.031,0.000
1605307691.803,-42.480,-44.922,-85.449,-62.500,0.000
1605307691.807,-193.848,-92.285,-82.031,-126.465,0.000
1605307691.811,-149.414,-68.848,-75.195,-86.914,0.000
1605307691.815,61.523,-5.371,-39.062,4.395,0.000
1605307691.819,149.414,-10.254,-33.203,26.855,0.000
1605307691.823,-10.254,-57.617,-60.547,-40.527,0.000
1605307691.827,-187.500,-85.449,-71.289,-116.699,0.000
1605307691.830,-156.250,-47.852,-55.664,-86.426,0.000
1605307691.834,39.062,-2.441,-31.738,11.719,0.000
1605307691.838,135.742,-0.977,-30.273,48.828,0.000
1605307691.842,23.926,-25.391,-45.410,-11.230,0.000
1605307691.846,-160.645,-43.457,-69.824,-101.562,0.000
1605307691.850,-111.816,-26.367,-12.695,-45.898,0.000
1605307691.854,101.562,6.348,39.062,67.383,0.000
1605307691.858,135.254,-2.441,-23.438,47.363,0.000
1605307691.862,16.113,-41.992,-60.059,-22.461,0.000
1605307691.866,-156.738,-77.148,-73.730,-110.840,0.000
1605307691.870,-167.969,-56.152,-54.688,-100.098,0.000
1605307691.873,9.277,-21.973,-38.086,-13.672,0.000
1605307691.877,147.949,4.395,-27.832,51.270,0.000
1605307691.881,45.410,-28.320,-60.059,1.465,0.000
1605307691.885,-127.930,-52.246,-63.965,-65.918,0.000
1605307691.889,-13.184,70.801,100.586,73.730,0.000
1605307691.893,62.500,51.758,41.016,79.590,0.000
1605307691.897,89.355,-35.156,-65.430,20.508,0.000
1605307691.901,57.129,-56.152,-49.316,-1.953,0.000
1605307691.905,-131.836,-80.566,-73.242,-94.727,0.000
1605307691.909,-201.660,-62.988,-64.941,-110.352,0.000
1605307691.913,-71.777,-34.180,-45.410,-41.016,0.000
1605307691.916,103.516,-12.695,-38.086,25.879,0.000
1605307691.920,72.754,-49.316,-62.500,0.000,0.000
1605307691.924,-104.004,-65.918,-74.219,-68.359,0.000
1605307691.928,-192.383,-60.059,-64.453,-96.191,0.000
1605307691.932,-74.219,-37.598,-42.969,-50.293,0.000
1605307691.936,119.629,16.113,-24.414,27.832,0.000
1605307691.940,91.309,-22.949,-62.012,5.859,0.000
1605307691.944,8.301,-11.719,7.812,22.949,0.000
1605307691.948,-63.965,11.230,56.641,16.113,0.000
1605307691.952,-116.699,-51.270,-44.922,-63.965,0.000
1605307691.955,61.523,-20.996,-50.781,-3.906,0.000
1605307691.959,115.234,-14.648,-42.480,25.391,0.000
1605307691.963,-54.688,-51.758,-64.453,-55.176,0.000
1605307691.967,-208.008,-84.961,-81.543,-128.906,0.000
1605307691.971,-131.348,-57.129,-59.570,-77.637,0.000
1605307691.975,62.988,-12.695,-39.062,0.488,0.000
1605307691.979,134.277,-7.812,-38.574,29.297,0.000
1605307691.983,67.383,-0.977,12.207,39.062,0.000
1605307691.987,-130.371,-38.574,-23.438,-68.848,0.000
1605307691.991,-148.926,-44.922,-53.223,-85.938,0.000
1605307691.995,47.363,-12.695,-24.414,15.625,0.000
1605307691.998,115.723,-28.320,-41.992,37.109,0.000
1605307692.002,-18.066,-54.688,-65.430,-18.555,0.000
1605307692.006,-186.523,-69.824,-78.613,-104.492,0.000
1605307692.010,-163.574,-59.082,-70.312,-102.051,0.000
1605307692.014,32.715,-25.391,-50.781,-4.883,0.000
1605307692.018,151.855,22.949,-31.738,48.828,0.000
1605307692.022,26.367,-18.555,-53.223,-16.113,0.000
1605307692.026,-171.875,-83.984,-80.078,-96.680,0.000
1605307692.030,-160.156,-52.246,-53.223,-74.707,0.000
1605307692.034,14.648,-11.230,-52.246,-11.719,0.000
1605307692.038,206.055,43.945,22.949,106.445,0.000
1605307692.041,159.668,46.875,53.711,100.586,0.000
1605307692.045,-146.973,-82.520,-64.453,-95.703,0.000
1605307692.049,-209.473,-87.402,-72.754,-131.836,0.000
1605307692.053,-13.672,-14.160,-35.645,-39.551,0.000
1605307692.057,131.348,-3.906,-24.414,36.133,0.000
1605307692.061,57.129,-35.156,-42.969,-5.859,0.000
1605307692.065,-132.324,-60.059,-58.105,-84.473,0.000
1605307692.069,-194.824,-76.660,-72.266,-109.863,0.000
1605307692.073,-15.625,-24.414,-36.133,-21.484,0.000
1605307692.077,273.438,95.703,92.285,175.293,0.000
1605307692.080,151.855,23.438,0.488,71.289,0.000
1605307692.084,-149.414,-83.984,-105.469,-118.652,0.000
1605307692.088,-216.797,-85.449,-72.266,-118.164,0.000
1605307692.092,-65.430,-47.363,-52.734,-52.246,0.000
1605307692.096,113.770,-5.859,-40.039,23.438,0.000
1605307692.100,96.680,-11.230,-44.434,17.090,0.000
1605307692.104,-77.148,-55.176,-67.871,-69.824,0.000
1605307692.108,-207.031,-83.984,-76.172,-121.582,0.000
1605307692.112,-83.984,-21.973,-42.969,-56.152,0.000
1605307692.116,109.375,20.996,-24.414,34.180,0.000
1605307692.120,94.238,-8.789,-41.504,20.020,0.000
1605307692.123,-81.543,-67.383,-57.617,-75.195,0.000
1605307692.127,-220.703,-69.824,-72.754,-134.277,0.000
1605307692.131,-34.668,1.465,11.230,-3.906,0.000
1605307692.135,202.148,44.434,68.359,126.953,0.000
1605307692.139,118.164,-0.488,-29.785,42.969,0.000
1605307692.143,-74.707,-52.734,-72.754,-65.430,0.000
1605307692.147,-207.031,-69.336,-69.824,-116.699,0.000
1605307692.151,-126.953,-46.387,-43.457,-69.336,0.000
1605307692.155,66.895,-13.672,-33.691,14.648,0.000
1605307692.159,120.605,-6.348,-37.598,28.809,0.000
1605307692.163,-48.340,-52.734,-73.730,-57.129,0.000
1605307692.166,-190.430,-66.406,-67.871,-114.746,0.000
1605307692.170,-13.672,37.598,74.219,43.457,0.000
1605307692.174,124.512,43.945,34.180,85.938,0.000
1605307692.178,100.098,-8.301,-62.988,11.230,0.000
1605307692.182,-20.020,-46.875,-69.336,-41.016,0.000
1605307692.186,-197.754,-87.402,-77.637,-120.605,0.000
1605307692.190,-181.152,-46.875,-53.223,-104.980,0.000
1605307692.194,26.367,-0.977,-34.180,-7.324,0.000
1605307692.198,151.367,6.348,-36.133,42.480,0.000
1605307692.202,32.227,-48.828,-63.477,-14.648,0.000
1605307692.205,-156.738,-76.172,-70.801,-84.473,0.000
1605307692.209,-154.297,-30.273,-50.781,-84.961,0.000
1605307692.213,10.742,-4.883,-40.039,-15.137,0.000
1605307692.217,142.578,30.762,-27.344,46.387,0.000
1605307692.221,60.547,0.977,-48.340,-2.441,0.000
1605307692.225,-117.188,-53.223,-41.992,-66.895,0.000
1605307692.229,-150.879,-48.340,-15.137,-61.523,0.000
1605307692.233,-27.344,-39.551,-40.527,-23.926,0.000
1605307692.237,118.652,-2.441,-39.551,31.250,0.000
1605307692.241,70.312,-17.578,-44.434,-1.953,0.000
1605307692.245,-117.676,-61.523,-66.406,-87.891,0.000
1605307692.248,-196.777,-67.383,-62.988,-107.910,0.000
1605307692.252,-40.527,-14.160,-31.738,-34.180,0.000
1605307692.256,121.582,9.277,-33.203,23.926,0.000
1605307692.260,82.031,-20.508,-41.016,17.090,0.000
1605307692.264,3.418,30.273,54.199,31.738,0.000
1605307692.268,-131.348,-11.230,8.789,-53.711,0.000
1605307692.272,-86.914,-41.504,-60.059,-65.430,0.000
1605307692.276,98.633,-8.301,-33.203,18.066,0.000
1605307692.280,83.008,-41.992,-50.293,0.488,0.000
1605307692.284,-93.262,-70.312,-66.895,-77.148,0.000
1605307692.288,-208.984,-76.172,-74.219,-120.605,0.000
1605307692.291,-105.957,-45.410,-59.082,-80.078,0.000
1605307692.295,83.984,-0.977,-31.738,5.859,0.000
1605307692.299,100.098,6.836,-36.621,19.531,0.000
1605307692.303,-68.359,-53.223,-70.801,-59.082,0.000
1605307692.307,-197.266,-86.914,-66.406,-111.328,0.000
1605307692.311,-109.375,-35.156,-34.668,-59.082,0.000
1605307692.315,62.988,5.859,-22.949,32.227,0.000
1605307692.319,149.902,17.090,8.301,78.125,0.000
1605307692.323,36.133,-12.695,3.418,12.207,0.000
1605307692.327,-184.082,-85.938,-55.176,-107.910,0.000
1605307692.330,-143.066,-59.570,-46.875,-83.008,0.000
1605307692.334,63.965,-2.441,-19.531,17.090,0.000
1605307692.338,126.465,-14.648,-27.832,54.688,0.000
1605307692.342,-15.625,-53.711,-60.547,-21.484,0.000
1605307692.346,-169.922,-77.148,-64.453,-96.680,0.000
1605307692.350,-142.090,-57.617,-42.969,-76.660,0.000
1605307692.354,30.273,-8.789,-19.043,3.418,0.000
1605307692.358,147.949,0.000,7.812,60.059,0.000
1605307692.362,16.113,-43.457,-21.484,-15.625,0.000
1605307692.366,-183.594,-71.289,-53.711,-106.445,0.000
1605307692.370,-183.594,-58.105,-42.480,-92.285,0.000
1605307692.373,-0.488,-25.391,-25.879,-17.578,0.000
1605307692.377,110.352,-4.395,-18.066,29.297,0.000
1605307692.381,-13.184,-32.715,-33.691,-22.461,0.000
1605307692.385,-188.477,-75.195,-49.316,-100.586,0.000
1605307692.389,-194.824,-83.008,-46.387,-105.957,0.000
1605307692.393,0.000,-22.461,-20.508,-2.930,0.000
1605307692.397,148.438,4.395,-18.066,59.570,0.000
1605307692.401,55.664,-32.715,-39.551,-0.488,0.000
1605307692.405,-142.090,-71.777,-53.711,-83.008,0.000
1605307692.409,-196.289,-67.871,-46.875,-101.074,0.000
1605307692.413,-3.906,0.488,-8.301,-1.953,0.000
1605307692.416,166.504,36.621,8.301,74.219,0.000
1605307692.420,80.566,-1.465,-22.461,25.879,0.000
1605307692.424,-113.770,-64.453,-53.223,-77.637,0.000
1605307692.428,-191.406,-81.055,-48.828,-109.863,0.000
1605307692.432,-38.574,-22.949,-14.160,-21.973,0.000
1605307692.436,125.488,-3.418,-16.113,43.457,0.000
1605307692.440,93.750,-15.137,-30.762,22.949,0.000
1605307692.444,-104.492,-60.547,-59.570,-78.125,0.000
1605307692.448,-192.383,-59.082,-60.547,-102.539,0.000
1605307692.452,86.914,112.305,87.402,106.934,0.000
1605307692.455,208.008,98.145,58.105,127.930,0.000
1605307692.459,92.773,-20.020,-47.852,24.902,0.000
1605307692.463,-84.961,-72.754,-54.199,-51.758,0.000
1605307692.467,-217.773,-103.516,-67.383,-116.211,0.000
1605307692.471,-97.656,-52.246,-41.016,-53.711,0.000
1605307692.475,95.703,-20.508,-29.297,21.484,0.000
1605307692.479,108.887,-28.320,-39.062,24.414,0.000
1605307692.483,-76.660,-65.430,-52.246,-55.664,0.000
1605307692.487,-203.125,-61.523,-49.316,-113.281,0.000
1605307692.491,-98.145,-26.855,-36.621,-61.523,0.000
1605307692.495,87.402,-3.418,-27.344,27.832,0.000
1605307692.498,139.648,17.578,-20.996,46.387,0.000
1605307692.502,-58.105,-58.594,-75.684,-64.453,0.000
1605307692.506,-122.559,-0.488,3.418,-44.434,0.000
1605307692.510,6.348,86.426,82.520,47.852,0.000
1605307692.514,59.570,-9.277,-21.484,7.812,0.000
1605307692.518,109.375,-18.066,-44.434,13.672,0.000
1605307692.522,-13.672,-44.922,-64.941,-44.922,0.000
1605307692.526,-185.059,-75.195,-75.684,-119.629,0.000
1605307692.530,-163.086,-69.336,-60.547,-95.215,0.000
1605307692.534,39.062,-23.926,-31.250,9.766,0.000
1605307692.538,129.883,0.488,-36.133,34.668,0.000
1605307692.541,2.930,-20.996,-63.477,-31.738,0.000
1605307692.545,-62.988,43.457,31.738,-8.789,0.000
1605307692.549,-102.051,9.277,8.301,-38.574,0.000
1605307692.553,-10.742,-46.387,-53.223,-31.250,0.000
1605307692.557,125.977,-21.973,-32.227,27.832,0.000
1605307692.561,26.367,-51.758,-38.574,-20.020,0.000
1605307692.565,-159.668,-80.078,-50.781,-98.633,0.000
1605307692.569,-186.523,-62.500,-58.594,-115.234,0.000
1605307692.573,-9.766,-18.066,-37.109,-22.949,0.000
1605307692.577,125.488,-12.695,-35.645,46.875,0.000
1605307692.580,61.523,-6.348,-41.992,2.930,0.000
1605307692.584,-130.859,-32.715,-60.547,-95.703,0.000
1605307692.588,-180.664,-72.754,-61.035,-115.723,0.000
1605307692.592,-16.602,-25.879,-20.508,-25.391,0.000
1605307692.596,108.398,18.555,-29.297,26.367,0.000
1605307692.600,126.465,35.645,23.926,72.266,0.000
1605307692.604,-7.324,6.348,48.340,29.297,0.000
1605307692.608,-203.613,-72.266,-71.777,-110.352,0.000
1605307692.612,-74.219,-36.621,-54.688,-48.340,0.000
1605307692.616,115.723,10.254,-17.090,27.344,0.000
1605307692.620,90.332,-6.836,-29.297,7.324,0.000
1605307692.623,-97.168,-61.523,-60.059,-72.754,0.000
1605307692.627,-199.707,-63.477,-62.012,-105.469,0.000
1605307692.631,-84.473,-34.180,-46.387,-49.805,0.000
1605307692.635,107.422,2.930,-14.648,22.949,0.000
1605307692.639,160.645,40.527,32.715,78.125,0.000
1605307692.643,-54.688,-33.691,-36.133,-33.203,0.000
1605307692.647,-224.609,-90.332,-79.102,-124.512,0.000
1605307692.651,-106.445,-51.758,-43.457,-69.336,0.000
1605307692.655,93.750,1.465,-25.391,10.742,0.000
1605307692.659,121.582,7.812,-23.926,33.203,0.000
1605307692.663,-62.012,-48.340,-52.734,-48.340,0.000
1605307692.666,-206.055,-72.266,-70.312,-116.699,0.000
1605307692.670,-117.676,-40.527,-41.504,-73.730,0.000
1605307692.674,80.078,16.113,-7.812,30.762,0.000
1605307692.678,131.348,9.277,-18.555,51.270,0.000
1605307692.682,-38.086,-55.176,-47.852,-41.016,0.000
1605307692.686,-203.613,-89.355,-57.129,-102.051,0.000
1605307692.690,-145.020,-55.664,-47.852,-71.289,0.000
1605307692.694,85.938,44.434,5.371,45.898,0.000
1605307692.698,163.574,42.480,8.789,76.660,0.000
1605307692.702,-27.344,-50.293,-52.246,-41.504,0.000
1605307692.705,-194.824,-75.195,-71.289,-126.465,0.000
1605307692.709,-155.273,-34.668,-58.105,-103.516,0.000
1605307692.713,30.273,11.719,-41.992,-15.137,0.000
1605307692.717,123.047,7.812,-37.109,20.020,0.000
1605307692.721,1.953,-21.973,-49.316,-45.410,0.000
1605307692.725,-182.617,-60.059,-82.031,-138.672,0.000
1605307692.729,-185.547,-32.227,-64.453,-129.395,0.000
1605307692.733,114.258,130.859,62.988,65.918,0.000
1605307692.737,198.242,113.770,23.438,65.918,0.000
1605307692.741,-5.371,-11.719,-78.613,-73.730,0.000
1605307692.745,-166.992,-55.176,-89.844,-136.230,0.000
1605307692.748,-188.965,-49.805,-79.590,-148.926,0.000
1605307692.752,-14.648,12.695,-50.293,-64.453,0.000
1605307692.756,122.070,34.180,-55.664,-15.625,0.000
1605307692.760,52.246,0.000,-78.125,-48.340,0.000
1605307692.764,-138.672,-63.477,-95.215,-125.000,0.000
1605307692.768,-184.570,-20.020,-78.613,-145.020,0.000
1605307692.772,-8.789,42.969,-50.781,-59.570,0.000
1605307692.776,138.184,30.762,-46.387,1.465,0.000
1605307692.780,87.891,12.695,-69.336,-27.832,0.000
1605307692.784,-114.258,-35.156,-104.004,-124.023,0.000
1605307692.788,-142.090,26.367,-42.969,-104.492,0.000
1605307692.791,52.734,104.980,3.418,9.277,0.000
1605307692.795,153.809,44.922,-52.734,13.184,0.000
1605307692.799,104.980,3.418,-87.402,-24.902,0.000
1605307692.803,-69.824,-36.621,-107.422,-96.680,0.000
1605307692.807,-164.551,-35.156,-90.820,-128.418,0.000
1605307692.811,-49.805,-15.625,-73.242,-75.195,0.000
1605307692.815,138.184,22.949,-54.199,13.184,0.000
1605307692.819,147.949,28.809,-68.848,22.949,0.000
1605307692.823,-26.367,0.000,-78.613,-61.035,0.000
1605307692.827,-27.832,100.098,28.809,-6.836,0.000
1605307692.830,35.645,94.238,-2.930,4.395,0.000
1605307692.834,108.887,26.855,-73.242,-3.906,0.000
1605307692.838,144.043,15.137,-67.383,10.742,0.000
1605307692.842,-14.160,-23.926,-95.703,-66.406,0.000
1605307692.846,-138.672,-31.738,-91.797,-109.375,0.000
1605307692.850,-66.406,-14.160,-74.219,-76.660,0.000
1605307692.854,119.141,31.250,-46.387,11.719,0.000
1605307692.858,176.270,12.695,-49.316,37.109,0.000
1605307692.862,27.832,0.000,-73.730,-35.645,0.000
1605307692.866,-135.254,-12.207,-84.961,-98.633,0.000
1605307692.870,-95.215,-17.090,-69.336,-69.336,0.000
1605307692.873,104.004,50.293,-40.039,27.344,0.000
1605307692.877,164.062,34.180,-59.570,31.738,0.000
1605307692.881,77.148,24.902,-35.156,-3.418,0.000
1605307692.885,-57.129,43.457,-19.531,-37.598,0.000
1605307692.889,-102.051,-9.277,-62.500,-76.660,0.000
1605307692.893,63.965,13.672,-47.363,-0.488,0.000
1605307692.897,159.668,29.297,-38.574,60.059,0.000
1605307692.901,63.477,-0.977,-53.711,0.977,0.000
1605307692.905,-127.441,-49.316,-80.078,-93.750,0.000
1605307692.909,-148.926,-36.621,-66.895,-90.820,0.000
1605307692.913,30.273,-1.953,-45.410,-5.859,0.000
1605307692.916,174.805,32.715,-16.113,77.637,0.000
1605307692.920,176.758,117.188,62.012,106.934,0.000
1605307692.924,-80.078,10.254,-20.996,-50.781,0.000
1605307692.928,-188.477,-76.172,-81.543,-113.281,0.000
1605307692.932,-7.324,-23.926,-51.758,-19.531,0.000
1605307692.936,135.742,-12.207,-46.875,47.363,0.000
1605307692.940,83.008,-6.836,-33.691,15.137,0.000
1605307692.944,-111.328,-34.180,-53.223,-86.426,0.000
1605307692.948,-193.848,-64.941,-60.059,-102.539,0.000
1605307692.952,-32.715,-36.621,-37.598,-22.461,0.000
1605307692.955,150.879,32.227,-25.879,52.734,0.000
1605307692.959,104.492,9.277,-42.969,21.484,0.000
1605307692.963,-95.703,-69.336,-61.523,-77.637,0.000
1605307692.967,-172.363,-53.223,-51.758,-93.750,0.000
1605307692.971,-54.688,-16.113,-39.062,-31.250,0.000
1605307692.975,149.902,31.250,18.066,81.055,0.000
1605307692.979,171.875,39.551,34.180,94.727,0.000
1605307692.983,-74.707,-54.199,-50.781,-47.363,0.000
1605307692.987,-210.449,-80.566,-70.312,-107.910,0.000
1605307692.991,-86.426,-40.527,-41.992,-44.434,0.000
1605307692.995,111.816,0.000,-13.672,51.758,0.000
1605307692.998,127.930,-7.324,-18.555,47.852,0.000
1605307693.002,-36.621,-42.480,-53.711,-30.762,0.000
1605307693.006,-187.012,-74.707,-70.801,-99.121,0.000
1605307693.010,-107.422,-38.086,-26.367,-49.316,0.000
1605307693.014,199.219,120.605,87.891,147.949,0.000
1605307693.018,191.406,69.824,29.785,110.840,0.000
1605307693.022,-66.406,-68.359,-60.547,-60.059,0.000
1605307693.026,-201.172,-91.797,-67.871,-115.723,0.000
1605307693.030,-130.371,-63.965,-57.129,-62.500,0.000
1605307693.034,59.570,-8.789,-25.391,29.297,0.000
1605307693.038,121.582,-25.391,-40.039,33.203,0.000
1605307693.041,-24.414,-64.941,-60.547,-29.785,0.000
1605307693.045,-185.547,-90.332,-69.824,-109.375,0.000
1605307693.049,-133.301,-41.992,-46.875,-81.543,0.000
1605307693.053,65.430,2.441,-20.508,15.625,0.000
1605307693.057,141.602,-3.418,-25.879,55.176,0.000
1605307693.061,4.395,-23.926,-41.504,-10.742,0.000
1605307693.065,-187.012,-71.777,-66.406,-113.281,0.000
1605307693.069,-125.000,-25.879,-17.578,-49.805,0.000
1605307693.073,102.539,48.340,43.457,75.684,0.000
1605307693.077,141.113,6.836,-11.230,50.781,0.000
1605307693.080,24.414,-22.461,-43.457,-19.043,0.000
1605307693.084,-153.809,-63.965,-50.293,-95.215,0.000
1605307693.088,-170.898,-70.312,-37.109,-90.332,0.000
1605307693.092,13.672,-30.273,-21.973,-12.695,0.000
1605307693.096,141.113,-2.441,-26.855,45.410,0.000
1605307693.100,33.203,-43.457,-43.945,-5.859,0.000
1605307693.104,-145.020,-74.219,-50.293,-102.051,0.000
1605307693.108,-104.492,17.578,20.508,-38.574,0.000
1605307693.112,34.668,28.320,21.484,21.973,0.000
1605307693.116,123.047,-0.488,-22.461,30.273,0.000
1605307693.120,56.641,-30.762,-36.621,-2.930,0.000
1605307693.123,-128.906,-93.750,-55.176,-91.309,0.000
1605307693.127,-196.289,-82.031,-48.340,-112.305,0.000
1605307693.131,-48.340,-33.203,-28.809,-29.785,0.000
1605307693.135,124.512,-4.395,-15.137,46.387,0.000
1605307693.139,77.637,-47.363,-27.832,22.461,0.000
1605307693.143,-94.238,-66.406,-37.598,-63.477,0.000
1605307693.147,-176.270,-43.457,-37.598,-104.004,0.000
1605307693.151,-69.336,-34.180,-29.297,-36.133,0.000
1605307693.155,123.047,11.230,-10.742,52.246,0.000
1605307693.159,82.031,-26.855,-43.945,12.207,0.000
1605307693.163,-4.395,-10.254,20.996,11.230,0.000
1605307693.166,-43.457,28.809,77.637,22.461,0.000
1605307693.170,-90.332,-53.223,-16.602,-51.758,0.000
1605307693.174,78.125,-16.602,-20.508,13.672,0.000
1605307693.178,114.258,2.441,-25.391,24.414,0.000
1605307693.182,-68.359,-50.781,-52.734,-65.918,0.000
1605307693.186,-200.195,-83.008,-64.453,-125.488,0.000
1605307693.190,-108.887,-46.875,-41.016,-68.359,0.000
1605307693.194,80.566,-6.836,-23.926,20.508,0.000
1605307693.198,129.395,-6.836,-13.184,42.969,0.000
1605307693.202,93.262,47.852,76.660,71.289,0.000
1605307693.205,-113.770,-10.254,12.695,-40.039,0.000
1605307693.209,-150.391,-63.477,-62.012,-85.449,0.000
1605307693.213,68.848,-8.301,-31.738,21.973,0.000
1605307693.217,128.418,-24.414,-39.062,41.016,0.000
1605307693.221,5.859,-51.758,-53.223,-27.344,0.000
1605307693.225,-166.016,-68.359,-62.012,-96.191,0.000
1605307693.229,-146.973,-54.199,-51.758,-73.242,0.000
1605307693.233,52.246,-13.184,-43.945,9.766,0.000
1605307693.237,158.691,27.832,-29.785,59.570,0.000
1605307693.241,32.715,-5.859,-36.621,-8.301,0.000
1605307693.245,-161.133,-77.148,-64.941,-106.934,0.000
1605307693.248,-155.273,-62.012,-51.270,-82.031,0.000
1605307693.252,5.859,-24.902,-47.363,-16.602,0.000
1605307693.256,200.684,45.898,25.879,105.957,0.000
1605307693.260,163.574,68.848,65.430,113.770,0.000
1605307693.264,-146.484,-79.590,-59.570,-91.309,0.000
1605307693.268,-198.242,-89.844,-78.613,-124.512,0.000
1605307693.272,-7.812,-30.762,-47.363,-24.414,0.000
1605307693.276,132.812,-18.555,-27.344,36.621,0.000
1605307693.280,44.922,-44.922,-40.039,-4.883,0.000
1605307693.284,-146.973,-84.473,-70.312,-87.891,0.000
1605307693.288,-199.707,-69.824,-73.242,-111.328,0.000
1605307693.291,-19.531,-8.301,-36.621,-20.020,0.000
1605307693.295,241.699,80.078,73.730,144.043,0.000
1605307693.299,124.023,21.484,15.625,57.617,0.000
1605307693.303,-146.484,-71.289,-79.102,-104.980,0.000
1605307693.307,-201.660,-75.684,-65.918,-123.047,0.000
1605307693.311,-62.012,-46.875,-38.086,-52.246,0.000
1605307693.315,118.164,2.441,-25.391,41.016,0.000
1605307693.319,84.473,-14.648,-46.875,23.438,0.000
1605307693.323,-105.957,-64.453,-61.035,-74.707,0.000
1605307693.327,-195.312,-82.031,-59.570,-120.605,0.000
1605307693.330,-66.895,-23.926,-31.738,-47.363,0.000
1605307693.334,119.629,21.484,-12.695,50.293,0.000
1605307693.338,90.332,-25.879,-36.621,11.230,0.000
1605307693.342,-90.820,-76.172,-60.547,-88.379,0.000
1605307693.346,-212.402,-66.406,-70.312,-135.254,0.000
1605307693.350,-71.289,-10.254,-11.230,-35.156,0.000
1605307693.354,158.203,34.180,37.598,86.914,0.000
1605307693.358,110.352,-15.137,-23.438,23.926,0.000
1605307693.362,-86.914,-69.824,-56.641,-83.496,0.000
1605307693.366,-209.473,-76.172,-56.152,-120.605,0.000
1605307693.370,-121.582,-40.039,-33.691,-66.895,0.000
1605307693.373,75.195,-9.277,-19.531,17.578,0.000
1605307693.377,129.395,10.254,-26.855,46.387,0.000
1605307693.381,-44.434,-41.016,-58.594,-42.969,0.000
1605307693.385,-181.152,-72.754,-56.152,-112.305,0.000
1605307693.389,-8.301,94.727,62.012,30.762,0.000
1605307693.393,128.906,88.867,38.574,71.289,0.000
1605307693.397,104.492,-21.973,-42.969,15.137,0.000
1605307693.401,-32.227,-58.594,-57.129,-38.574,0.000
1605307693.405,-190.918,-81.543,-72.266,-114.258,0.000
1605307693.409,-160.645,-52.734,-46.875,-85.938,0.000
1605307693.413,23.438,-22.461,-21.973,7.324,0.000
1605307693.416,131.348,-15.137,-17.578,51.270,0.000
1605307693.420,-5.859,-74.707,-39.062,-21.973,0.000
1605307693.424,-181.641,-78.613,-43.945,-96.191,0.000
1605307693.428,-161.621,-33.691,-34.180,-79.102,0.000
1605307693.432,22.949,-14.160,-28.320,8.301,0.000
1605307693.436,152.344,19.043,-10.742,50.781,0.000
1605307693.440,18.555,-32.227,-47.852,-30.273,0.000
1605307693.444,-119.141,-23.926,-10.742,-52.246,0.000
1605307693.448,-83.496,44.922,54.199,-11.719,0.000
1605307693.452,-4.395,-9.766,-11.230,-14.160,0.000
1605307693.455,106.934,-15.625,-38.086,19.043,0.000
1605307693.459,53.711,-28.809,-42.969,-9.766,0.000
1605307693.463,-117.188,-49.805,-53.223,-85.938,0.000
1605307693.467,-188.965,-76.172,-54.688,-113.770,0.000
1605307693.471,-27.344,-27.344,-25.391,-31.738,0.000
1605307693.475,125.977,0.488,-22.949,32.715,0.000
1605307693.479,64.453,-37.598,-37.109,-2.441,0.000
1605307693.483,-13.184,34.668,40.527,8.789,0.000
1605307693.487,-124.512,0.977,7.324,-51.270,0.000
1605307693.491,-69.336,-40.527,-41.504,-53.711,0.000
1605307693.495,110.352,-8.301,-23.926,32.227,0.000
1605307693.498,78.613,-44.434,-40.039,-1.465,0.000
1605307693.502,-102.051,-68.359,-45.898,-86.914,0.000
1605307693.506,-202.148,-71.289,-49.805,-121.582,0.000
1605307693.510,-74.707,-40.527,-32.227,-52.734,0.000
1605307693.514,103.516,-12.207,-19.043,34.668,0.000
1605307693.518,102.539,14.160,-20.020,26.367,0.000
1605307693.522,-69.336,-20.020,-39.551,-54.688,0.000
1605307693.526,-195.801,-71.289,-55.176,-105.957,0.000
1605307693.530,-90.332,-30.273,-26.855,-51.270,0.000
1605307693.534,80.566,-8.789,-21.973,10.742,0.000
1605307693.538,195.801,68.359,43.945,99.609,0.000
1605307693.541,101.562,98.633,80.566,86.914,0.000
1605307693.545,-175.293,-71.289,-39.551,-94.238,0.000
1605307693.549,-142.578,-85.449,-55.176,-89.844,0.000
1605307693.553,69.336,-14.648,-21.484,11.230,0.000
1605307693.557,144.043,10.742,-16.113,44.922,0.000
1605307693.561,-16.113,-47.363,-44.922,-32.715,0.000
1605307693.565,-186.035,-85.938,-49.316,-96.680,0.000
1605307693.569,-142.090,-65.430,-45.898,-79.102,0.000
1605307693.573,57.129,-3.418,-20.020,13.672,0.000
1605307693.577,293.457,185.547,143.555,208.008,0.000
1605307693.580,89.844,87.891,60.547,66.406,0.000
1605307693.584,-233.398,-102.539,-80.078,-154.297,0.000
1605307693.588,-190.918,-87.891,-49.316,-106.934,0.000
1605307693.592,13.672,-49.805,-30.762,-11.719,0.000
1605307693.596,129.395,-21.484,-20.508,28.320,0.000
1605307693.600,-8.301,-53.711,-51.758,-42.969,0.000
1605307693.604,-184.570,-87.402,-69.336,-117.188,0.000
1605307693.608,-167.969,-79.102,-56.641,-108.398,0.000
1605307693.612,15.137,-15.625,-24.414,-20.020,0.000
1605307693.616,140.625,5.859,-14.648,49.805,0.000
1605307693.620,28.809,-51.270,-54.688,-6.348,0.000
1605307693.623,-158.203,-78.125,-58.105,-92.773,0.000
1605307693.627,-213.867,-89.844,-59.082,-118.164,0.000
1605307693.631,66.406,62.988,50.781,67.383,0.000
1605307693.635,296.875,171.387,138.184,203.125,0.000
1605307693.639,54.199,-22.949,-23.438,-4.395,0.000
1605307693.643,-180.176,-101.562,-94.238,-131.348,0.000
1605307693.647,-220.703,-98.145,-69.336,-121.094,0.000
1605307693.651,-60.547,-57.617,-29.297,-41.504,0.000
1605307693.655,94.727,-33.691,-20.020,29.297,0.000
1605307693.659,56.641,-39.551,-41.992,-7.324,0.000
1605307693.663,-116.211,-72.754,-66.895,-97.168,0.000
1605307693.666,-199.707,-89.844,-61.523,-117.188,0.000
1605307693.670,-3.906,13.184,24.414,15.137,0.000
1605307693.674,150.391,29.785,20.020,74.219,0.000
1605307693.678,69.824,-40.039,-42.480,-0.977,0.000
1605307693.682,-111.328,-74.219,-59.082,-77.148,0.000
1605307693.686,-209.961,-77.637,-55.664,-116.699,0.000
1605307693.690,-84.961,-27.832,-29.785,-55.664,0.000
1605307693.694,93.262,-0.488,-20.996,34.180,0.000
1605307693.698,109.863,-22.461,-26.855,27.344,0.000
1605307693.702,-58.594,-72.754,-52.734,-68.848,0.000
1605307693.705,-197.266,-67.383,-62.988,-127.930,0.000
1605307693.709,-109.863,-29.297,-37.598,-73.242,0.000
1605307693.713,71.289,-14.648,-20.020,17.090,0.000
1605307693.717,105.469,1.465,-17.090,27.344,0.000
1605307693.721,-71.777,-41.992,-51.270,-66.895,0.000
1605307693.725,-163.086,-38.086,-13.184,-78.613,0.000
1605307693.729,-63.965,13.672,39.062,-19.043,0.000
1605307693.733,56.641,-0.488,-8.789,-1.465,0.000
1605307693.737,114.258,-6.348,-29.297,6.836,0.000
1605307693.741,-40.527,-48.828,-47.852,-59.570,0.000
1605307693.745,-224.609,-81.543,-56.641,-141.113,0.000
1605307693.748,-202.148,-43.945,-42.480,-138.184,0.000
1605307693.752,-17.090,15.137,-14.160,-44.434,0.000
1605307693.756,42.480,-0.488,-27.832,-32.227,0.000
1605307693.760,-109.375,-45.410,-40.527,-119.141,0.000
1605307693.764,-145.020,47.363,77.148,-77.637,0.000
1605307693.768,-190.918,30.762,31.738,-137.207,0.000
1605307693.772,-134.277,-26.367,-45.410,-164.551,0.000
1605307693.776,-17.578,-18.066,-26.367,-103.027,0.000
1605307693.780,-143.555,-74.707,-55.664,-185.547,0.000
1605307693.784,-318.359,-90.332,-56.641,-250.977,0.000
1605307693.788,-339.844,-81.055,-51.758,-251.465,0.000
1605307693.791,-166.504,-48.828,-44.922,-184.570,0.000
1605307693.795,-43.457,-45.410,-29.297,-124.023,0.000
1605307693.799,-147.461,-52.734,-26.855,-168.457,0.000
1605307693.803,-314.453,-76.172,-50.293,-250.488,0.000
1605307693.807,-349.609,-92.773,-49.805,-253.906,0.000
1605307693.811,-192.383,-37.598,-16.602,-170.898,0.000
1605307693.815,-55.176,-3.418,-7.812,-111.816,0.000
1605307693.819,-74.219,-36.621,20.996,-101.562,0.000
1605307693.823,-229.980,-93.262,33.691,-155.273,0.000
1605307693.827,-356.445,-119.629,-31.738,-224.609,0.000
1605307693.830,-209.961,-73.242,-15.137,-158.691,0.000
1605307693.834,-54.688,-35.156,7.324,-90.820,0.000
1605307693.838,-81.543,-63.477,-6.836,-107.910,0.000
1605307693.842,-265.137,-109.863,-39.062,-206.055,0.000
1605307693.846,-355.957,-104.004,-28.809,-230.957,0.000
1605307693.850,-229.004,-72.754,-8.789,-163.086,0.000
1605307693.854,-51.758,-45.898,-4.883,-77.148,0.000
1605307693.858,29.785,2.441,83.008,12.207,0.000
1605307693.862,-174.316,-52.734,36.621,-84.961,0.000
1605307693.866,-360.352,-113.281,-51.758,-213.379,0.000
1605307693.870,-234.863,-78.613,-27.344,-153.320,0.000
1605307693.873,-48.828,-63.477,-8.301,-59.082,0.000
1605307693.877,-16.602,-59.082,2.441,-48.828,0.000
1605307693.881,-179.199,-91.797,-19.043,-130.371,0.000
1605307693.885,-325.684,-116.699,-34.668,-182.617,0.000
1605307693.889,-232.422,-91.309,-8.789,-134.277,0.000
1605307693.893,4.395,-57.129,22.461,-26.855,0.000
1605307693.897,29.297,-45.410,-7.812,0.488,0.000
1605307693.901,-149.902,-87.402,-42.969,-89.844,0.000
1605307693.905,-267.090,-95.703,-35.156,-146.484,0.000
1605307693.909,-214.355,-68.359,-31.250,-116.699,0.000
1605307693.913,57.129,4.883,56.152,47.363,0.000
1605307693.916,216.309,45.410,88.867,137.695,0.000
1605307693.920,-51.758,-79.590,-14.648,-26.855,0.000
1605307693.924,-232.422,-114.746,-28.320,-98.145,0.000
1605307693.928,-144.043,-76.660,-13.672,-43.457,0.000
1605307693.932,50.293,-33.203,11.230,34.668,0.000
1605307693.936,131.348,-41.504,11.719,67.383,0.000
1605307693.940,9.766,-83.984,0.000,21.484,0.000
1605307693.944,-165.527,-125.488,-25.391,-63.965,0.000
1605307693.948,-130.859,-87.402,-25.391,-34.668,0.000
1605307693.952,247.559,114.746,152.832,231.934,0.000
1605307693.955,302.734,75.684,105.469,223.633,0.000
1605307693.959,41.504,-97.656,-51.270,38.574,0.000
1605307693.963,-140.625,-134.766,-55.176,-31.250,0.000
1605307693.967,-138.184,-118.652,-46.387,-23.926,0.000
1605307693.971,59.082,-47.852,-27.344,84.961,0.000
1605307693.975,175.293,-40.527,-21.973,136.719,0.000
1605307693.979,96.191,-77.148,-26.367,89.844,0.000
1605307693.983,-86.914,-97.168,-53.223,0.488,0.000
1605307693.987,-111.328,-70.312,-39.062,17.090,0.000
1605307693.991,62.012,-34.180,6.836,108.398,0.000
1605307693.995,196.777,-29.785,-1.953,155.762,0.000
1605307693.998,150.391,-33.691,-21.484,131.836,0.000
1605307694.002,-64.453,-90.332,-61.035,10.742,0.000
1605307694.006,-57.129,-41.992,9.277,52.246,0.000
1605307694.010,172.363,49.805,97.168,191.895,0.000
1605307694.014,198.242,-30.762,-1.953,149.414,0.000
1605307694.018,123.047,-69.824,-47.363,91.797,0.000
1605307694.022,-30.762,-70.801,-56.641,18.555,0.000
1605307694.026,-111.328,-69.824,-45.898,5.859,0.000
1605307694.030,13.184,-44.434,-26.367,54.199,0.000
1605307694.034,196.289,-17.090,-22.949,121.094,0.000
1605307694.038,178.223,-30.762,-47.852,105.957,0.000
1605307694.041,-11.719,-54.199,-56.641,19.043,0.000
1605307694.045,-33.691,3.418,44.434,64.453,0.000
1605307694.049,29.785,3.906,28.320,79.102,0.000
1605307694.053,131.348,-21.484,-32.715,76.172,0.000
1605307694.057,164.551,-15.625,-34.180,83.984,0.000
1605307694.061,-16.113,-67.383,-60.059,-1.953,0.000
1605307694.065,-141.602,-93.750,-69.824,-62.012,0.000
1605307694.069,-58.594,-61.523,-56.641,-12.695,0.000
1605307694.073,136.230,-10.742,-38.086,79.590,0.000
1605307694.077,184.082,-20.996,-36.621,83.008,0.000
1605307694.080,21.973,-59.570,-51.758,4.395,0.000
1605307694.084,-125.000,-56.152,-62.500,-45.410,0.000
1605307694.088,-86.914,-41.016,-48.340,-21.973,0.000
1605307694.092,105.469,9.766,-10.742,60.059,0.000
1605307694.096,161.621,16.113,-25.391,71.777,0.000
1605307694.100,112.793,41.992,40.039,95.703,0.000
1605307694.104,23.438,43.945,84.473,82.031,0.000
1605307694.108,-100.098,-43.945,-36.133,-41.016,0.000
1605307694.112,42.480,-13.672,-42.480,13.672,0.000
1605307694.116,151.367,-2.441,-21.973,56.641,0.000
1605307694.120,41.992,-50.293,-30.273,7.324,0.000
1605307694.123,-142.578,-74.219,-58.105,-76.660,0.000
1605307694.127,-150.391,-42.480,-49.805,-75.684,0.000
1605307694.131,17.578,-14.160,-34.668,7.812,0.000
1605307694.135,159.180,10.254,-6.348,83.008,0.000
1605307694.139,261.230,119.141,163.086,205.078,0.000
1605307694.143,-18.555,20.020,64.941,16.602,0.000
1605307694.147,-217.285,-93.750,-72.754,-145.020,0.000
1605307694.151,-34.668,-43.945,-24.902,-32.715,0.000
1605307694.155,97.656,-12.207,-12.695,21.484,0.000
1605307694.159,27.832,-20.508,-16.113,-28.809,0.000
1605307694.163,-180.664,-57.617,-39.062,-131.348,0.000
1605307694.166,-244.629,-66.895,-32.715,-156.738,0.000
1605307694.170,-106.445,-36.133,-9.766,-104.004,0.000
1605307694.174,55.176,6.836,13.184,-42.480,0.000
1605307694.178,-19.531,-25.879,9.277,-83.984,0.000
1605307694.182,-251.953,-92.285,-22.461,-202.637,0.000
1605307694.186,-313.477,-89.355,-23.926,-218.262,0.000
1605307694.190,-195.801,-49.805,-10.254,-157.715,0.000
1605307694.194,12.695,-19.043,49.805,-36.621,0.000
1605307694.198,24.414,-45.410,72.266,-24.902,0.000
1605307694.202,-239.258,-105.957,-23.438,-190.918,0.000
1605307694.205,-341.797,-107.422,-36.621,-236.328,0.000
1605307694.209,-199.707,-45.898,-2.441,-155.762,0.000
1605307694.213,19.531,-5.371,15.625,-50.781,0.000
1605307694.217,0.000,-41.016,-10.742,-65.918,0.000
1605307694.221,-173.340,-84.473,-42.969,-140.137,0.000
1605307694.225,-270.508,-86.914,-56.641,-166.504,0.000
1605307694.229,-166.504,-37.109,-23.438,-95.703,0.000
1605307694.233,137.695,20.508,65.918,85.938,0.000
1605307694.237,124.512,-8.789,31.738,58.105,0.000
1605307694.241,-96.191,-69.336,-23.926,-76.172,0.000
1605307694.245,-204.102,-97.656,-35.156,-102.539,0.000
1605307694.248,-138.184,-68.848,-27.832,-52.734,0.000
1605307694.252,85.449,-13.672,0.000,53.223,0.000
1605307694.256,138.672,-9.766,-11.230,74.219,0.000
1605307694.260,-17.578,-56.641,-41.016,0.000,0.000
1605307694.264,-153.320,-96.680,-58.105,-64.453,0.000
1605307694.268,-81.055,-44.434,-33.203,-26.367,0.000
1605307694.272,123.535,23.438,6.836,88.379,0.000
1605307694.276,191.406,16.602,-7.812,114.746,0.000
1605307694.280,58.594,-29.785,-37.598,44.922,0.000
1605307694.284,-127.441,-54.199,-62.500,-31.738,0.000
1605307694.288,-44.922,-19.043,-8.301,22.461,0.000
1605307694.291,192.383,28.320,48.340,135.742,0.000
1605307694.295,205.566,22.949,-15.625,107.910,0.000
1605307694.299,63.965,-30.273,-53.223,28.320,0.000
1605307694.303,-102.539,-73.730,-58.594,-49.805,0.000
1605307694.307,-109.375,-53.711,-53.711,-38.574,0.000
1605307694.311,76.172,-8.789,-45.898,47.852,0.000
1605307694.315,205.078,28.809,-30.762,101.074,0.000
1605307694.319,89.844,-2.930,-46.387,40.527,0.000
1605307694.323,-104.004,-55.176,-68.848,-47.363,0.000
1605307694.327,-61.035,-52.734,0.488,11.719,0.000
1605307694.330,94.238,7.812,10.254,75.684,0.000
1605307694.334,180.664,40.039,-32.227,83.984,0.000
1605307694.338,115.234,1.953,-41.016,41.504,0.000
1605307694.342,-83.008,-41.016,-59.570,-53.711,0.000
1605307694.346,-129.395,-27.344,-46.387,-65.430,0.000
1605307694.350,15.137,0.488,-29.785,5.859,0.000
1605307694.354,163.086,10.742,-26.855,75.195,0.000
1605307694.358,120.117,-21.973,-30.273,49.316,0.000
1605307694.362,-64.453,-54.199,-41.992,-39.551,0.000
1605307694.366,-137.695,-53.223,-52.734,-53.223,0.000
1605307694.370,-15.625,-26.367,-46.875,-0.488,0.000
1605307694.373,154.785,25.391,-21.973,71.777,0.000
1605307694.377,125.488,7.812,-36.621,51.758,0.000
1605307694.381,-18.066,-24.902,-29.785,-6.836,0.000
1605307694.385,-92.285,-10.742,11.719,-20.508,0.000
1605307694.389,-41.016,-32.715,-20.996,-25.391,0.000
1605307694.393,116.211,-10.254,-29.785,45.898,0.000
1605307694.397,120.605,-3.418,-38.086,56.152,0.000
1605307694.401,-38.574,-50.293,-45.898,-26.855,0.000
1605307694.405,-181.152,-89.844,-65.430,-89.844,0.000
1605307694.409,-82.031,-35.645,-48.828,-45.898,0.000
1605307694.413,103.027,16.602,-33.691,31.738,0.000
1605307694.416,141.602,9.277,-24.414,49.316,0.000
1605307694.420,196.777,103.027,162.109,166.504,0.000
1605307694.424,-36.133,28.320,80.078,34.180,0.000
1605307694.428,-149.902,-68.848,-69.336,-90.820,0.000
1605307694.432,70.801,-21.484,-36.133,13.672,0.000
1605307694.436,122.559,-30.762,-42.969,30.762,0.000
1605307694.440,-20.020,-54.199,-61.523,-31.738,0.000
1605307694.444,-180.664,-56.641,-69.336,-115.234,0.000
1605307694.448,-138.184,-48.828,-58.105,-90.820,0.000
1605307694.452,42.480,-29.297,-39.062,7.324,0.000
1605307694.455,116.699,-1.953,-41.016,34.668,0.000
1605307694.459,-5.859,-28.809,-52.734,-38.574,0.000
1605307694.463,-189.453,-77.637,-76.660,-106.445,0.000
1605307694.467,-155.273,-58.105,-61.523,-87.891,0.000
1605307694.471,40.039,-4.395,-33.203,-21.973,0.000
1605307694.475,176.758,23.926,16.113,83.008,0.000
1605307694.479,114.746,5.371,27.832,75.195,0.000
1605307694.483,-140.625,-73.242,-46.387,-80.078,0.000
1605307694.487,-191.895,-60.059,-40.039,-101.074,0.000
1605307694.491,4.883,4.395,-12.207,-13.672,0.000
1605307694.495,135.254,12.207,-12.207,39.062,0.000
1605307694.498,27.832,-26.367,-43.457,-18.066,0.000
1605307694.502,-151.367,-61.035,-54.199,-99.609,0.000
1605307694.506,-187.988,-68.848,-54.688,-107.910,0.000
1605307694.510,-7.324,-24.414,-27.344,-11.230,0.000
1605307694.514,276.367,101.074,115.234,183.105,0.000
1605307694.518,174.805,62.500,56.152,92.773,0.000
1605307694.522,-149.414,-71.777,-78.613,-108.398,0.000
1605307694.526,-216.797,-83.984,-76.660,-115.723,0.000
1605307694.530,-44.434,-33.203,-51.758,-37.109,0.000
1605307694.534,134.766,15.137,-26.367,39.062,0.000
1605307694.538,77.637,-10.254,-45.898,0.000,0.000
1605307694.541,-119.629,-70.312,-51.270,-96.680,0.000
1605307694.545,-207.520,-83.984,-42.480,-125.977,0.000
1605307694.549,-64.453,-2.441,-10.742,-48.340,0.000
1605307694.553,114.258,34.180,8.301,37.109,0.000
1605307694.557,101.074,-18.066,-22.461,20.020,0.000
1605307694.561,-78.613,-39.551,-44.434,-54.199,0.000
1605307694.565,-213.379,-57.129,-59.570,-120.605,0.000
1605307694.569,-59.570,-24.414,-7.324,-21.973,0.000
1605307694.573,157.715,17.578,44.434,87.402,0.000
1605307694.577,98.633,-33.203,-20.996,13.672,0.000
1605307694.580,-89.355,-67.383,-55.176,-64.941,0.000
1605307694.584,-203.125,-67.871,-48.828,-106.445,0.000
1605307694.588,-96.680,-34.180,-28.809,-50.293,0.000
1605307694.592,88.867,-3.418,-18.555,40.527,0.000
1605307694.596,110.352,-0.488,-24.414,37.598,0.000
1605307694.600,-56.152,-41.504,-57.129,-57.617,0.000
1605307694.604,-190.918,-73.242,-57.129,-112.305,0.000
1605307694.608,-69.824,-41.992,15.137,-22.949,0.000
1605307694.612,97.656,6.348,16.113,43.945,0.000
1605307694.616,131.348,17.090,-15.625,47.852,0.000
1605307694.620,-7.324,-33.203,-34.180,-19.531,0.000
1605307694.623,-179.199,-79.102,-46.387,-114.258,0.000
1605307694.627,-125.000,-37.598,-28.809,-66.895,0.000
1605307694.631,59.570,11.719,-18.555,37.598,0.000
1605307694.635,131.348,6.836,-20.508,44.434,0.000
1605307694.639,-2.930,-43.457,-41.504,-32.715,0.000
1605307694.643,-163.086,-46.387,-48.828,-97.168,0.000
1605307694.647,-146.973,-27.832,-39.551,-70.312,0.000
1605307694.651,20.020,-17.578,-16.113,8.789,0.000
1605307694.655,145.996,20.508,4.883,54.688,0.000
1605307694.659,18.555,-22.461,-33.691,-17.090,0.000
1605307694.663,-94.238,-22.461,6.836,-30.273,0.000
1605307694.666,-28.320,51.270,73.242,39.062,0.000
1605307694.670,24.902,-0.488,-15.625,-7.324,0.000
1605307694.674,106.445,-11.719,-34.668,-0.488,0.000
1605307694.678,31.738,-20.508,-36.621,-28.809,0.000
1605307694.682,-127.441,-47.363,-49.316,-92.773,0.000
1605307694.686,-186.523,-60.059,-57.617,-117.676,0.000
1605307694.690,-48.340,-23.438,-36.621,-44.434,0.000
1605307694.694,125.000,6.836,-41.016,14.160,0.000
1605307694.698,69.336,-16.113,-63.477,-20.996,0.000
1605307694.702,-28.809,12.207,29.297,-1.465,0.000
1605307694.705,-113.770,-9.766,21.484,-45.410,0.000
1605307694.709,-65.918,-27.832,-33.203,-57.129,0.000
1605307694.713,94.238,-3.418,-18.555,20.996,0.000
1605307694.717,69.824,-26.855,-43.945,9.766,0.000
1605307694.721,-108.398,-48.828,-53.711,-72.754,0.000
1605307694.725,-193.359,-59.570,-48.340,-118.164,0.000
1605307694.729,-78.613,-50.293,-31.738,-66.406,0.000
1605307694.733,94.727,-11.230,-11.719,17.090,0.000
1605307694.737,99.121,19.043,-20.508,20.996,0.000
1605307694.741,-86.914,-30.273,-47.852,-67.383,0.000
1605307694.745,-220.703,-87.402,-55.664,-127.441,0.000
1605307694.748,-81.055,-32.715,-16.113,-52.734,0.000
1605307694.752,104.492,10.742,-15.625,21.973,0.000
1605307694.756,153.809,23.926,7.812,64.941,0.000
1605307694.760,37.598,-2.441,21.484,28.809,0.000
1605307694.764,-181.152,-87.402,-50.781,-110.352,0.000
1605307694.768,-124.023,-54.688,-37.109,-82.031,0.000
1605307694.772,82.031,6.348,-6.836,20.996,0.000
1605307694.776,125.488,7.812,-18.066,37.598,0.000
1605307694.780,-37.598,-43.945,-41.016,-45.898,0.000
1605307694.784,-204.102,-83.496,-49.316,-118.164,0.000
1605307694.788,-147.461,-51.758,-38.574,-88.379,0.000
1605307694.791,55.176,1.953,-12.207,13.672,0.000
1605307694.795,144.043,-14.648,2.930,63.965,0.000
1605307694.799,-14.160,-61.523,-36.621,-34.668,0.000
1605307694.803,-190.430,-73.730,-53.711,-113.281,0.000
1605307694.807,-151.367,-60.547,-35.645,-87.891,0.000
1605307694.811,43.945,-15.625,-20.508,0.977,0.000
1605307694.815,145.508,14.648,-12.207,45.898,0.000
1605307694.819,15.625,-24.902,-37.598,-24.414,0.000
1605307694.823,-167.969,-65.918,-56.641,-101.562,0.000
1605307694.827,-156.738,-60.059,-40.039,-83.984,0.000
1605307694.830,41.504,4.395,-8.301,16.602,0.000
1605307694.834,147.461,19.531,-1.953,64.941,0.000
1605307694.838,22.461,-27.832,-33.691,-13.672,0.000
1605307694.842,-140.137,-57.129,-44.434,-93.262,0.000
1605307694.846,-173.340,-48.340,-42.969,-98.633,0.000
1605307694.850,53.711,37.109,20.020,44.434,0.000
1605307694.854,243.652,88.867,74.219,158.691,0.000
1605307694.858,56.152,-14.648,-16.602,24.902,0.000
1605307694.862,-150.879,-85.449,-59.570,-103.516,0.000
1605307694.866,-183.105,-77.637,-41.504,-104.004,0.000
1605307694.870,-24.902,-26.855,-15.625,-12.207,0.000
1605307694.873,122.070,-1.953,-8.789,39.551,0.000
1605307694.877,64.941,-23.438,-20.020,4.395,0.000
1605307694.881,-120.117,-68.848,-47.363,-86.914,0.000
1605307694.885,-182.617,-59.082,-44.922,-98.145,0.000
1605307694.889,14.648,21.973,38.086,31.738,0.000
1605307694.893,139.160,20.996,25.879,65.918,0.000
1605307694.897,74.219,-25.391,-21.484,6.836,0.000
1605307694.901,-99.609,-65.918,-33.203,-70.801,0.000
1605307694.905,-191.406,-63.965,-34.668,-103.027,0.000
1605307694.909,-60.547,-16.113,-20.508,-28.809,0.000
1605307694.913,105.957,19.531,-13.184,38.574,0.000
1605307694.916,99.609,-8.301,-24.414,23.438,0.000
1605307694.920,-87.402,-75.684,-40.527,-65.918,0.000
1605307694.924,-196.289,-58.594,-31.738,-105.957,0.000
1605307694.928,-95.215,-24.902,-11.719,-42.480,0.000
1605307694.932,95.215,-1.465,0.488,42.969,0.000
1605307694.936,130.371,12.207,-12.207,43.945,0.000
1605307694.940,-58.105,-40.527,-38.086,-53.223,0.000
1605307694.944,-190.918,-73.242,-21.973,-99.609,0.000
1605307694.948,-88.867,-37.598,-0.488,-45.898,0.000
1605307694.952,86.914,0.000,-7.812,20.996,0.000
1605307694.955,128.418,0.977,-17.578,33.691,0.000
1605307694.959,-24.902,-27.344,-41.016,-33.203,0.000
1605307694.963,-184.570,-60.547,-55.664,-103.027,0.000
1605307694.967,-135.742,-53.711,-45.898,-83.984,0.000
1605307694.971,61.523,4.395,-14.648,9.766,0.000
1605307694.975,141.602,17.578,0.488,54.199,0.000
1605307694.979,2.441,-33.691,-24.414,-19.043,0.000
1605307694.983,-177.246,-97.168,-41.992,-101.562,0.000
1605307694.987,-155.273,-58.105,-20.996,-76.660,0.000
1605307694.991,40.527,1.465,-9.766,12.207,0.000
1605307694.995,151.367,7.324,-3.906,62.988,0.000
1605307694.998,28.809,-28.320,-13.672,-0.977,0.000
1605307695.002,-172.363,-77.637,-42.480,-110.840,0.000
1605307695.006,-165.527,-56.641,-32.715,-103.027,0.000
1605307695.010,12.695,-1.953,-12.695,0.000,0.000
1605307695.014,107.910,-7.324,-29.785,27.832,0.000
1605307695.018,9.766,-20.996,-49.805,-37.109,0.000
1605307695.022,-149.902,-47.852,-56.641,-104.492,0.000
1605307695.026,-187.012,-61.035,-68.359,-112.305,0.000
1605307695.030,-41.992,-7.812,-38.574,-51.758,0.000
1605307695.034,96.191,34.180,-7.812,-7.324,0.000
1605307695.038,58.105,17.578,7.324,-22.461,0.000
1605307695.041,-120.605,-33.691,-5.859,-100.098,0.000
1605307695.045,-213.379,-51.270,-41.016,-144.531,0.000
1605307695.049,-56.641,-12.695,-29.785,-63.965,0.000
1605307695.053,106.445,11.230,-15.625,-1.465,0.000
1605307695.057,63.965,-3.906,-19.531,-16.602,0.000
1605307695.061,-133.789,-56.152,-46.875,-104.980,0.000
1605307695.065,-216.309,-58.105,-54.199,-133.789,0.000
1605307695.069,-68.848,-9.766,-36.133,-53.711,0.000
1605307695.073,122.559,23.926,-16.602,30.273,0.000
1605307695.077,159.180,46.387,28.809,80.078,0.000
1605307695.080,-61.523,-6.348,-16.113,-25.391,0.000
1605307695.084,-205.078,-66.406,-74.219,-122.070,0.000
1605307695.088,-86.914,-39.062,-46.875,-52.734,0.000
1605307695.092,88.379,-10.742,-13.672,32.227,0.000
1605307695.096,114.746,-5.371,-10.742,26.855,0.000
1605307695.100,-59.082,-39.551,-40.527,-59.570,0.000
1605307695.104,-200.195,-67.871,-52.246,-102.051,0.000
1605307695.108,-98.633,-40.039,-29.297,-43.945,0.000
1605307695.112,110.352,26.367,1.465,33.203,0.000
1605307695.116,123.047,15.625,-3.906,41.016,0.000
1605307695.120,-49.316,-52.734,-39.062,-47.852,0.000
1605307695.123,-180.176,-51.758,-39.062,-104.004,0.000
1605307695.127,-99.609,-11.719,-26.367,-62.012,0.000
1605307695.131,111.328,10.254,-3.418,39.551,0.000
1605307695.135,173.340,11.230,16.602,78.125,0.000
1605307695.139,-16.602,-42.969,-31.250,-29.785,0.000
1605307695.143,-179.199,-70.801,-51.758,-110.352,0.000
1605307695.147,-123.535,-35.156,-32.227,-73.242,0.000
1605307695.151,69.824,-0.488,-9.277,12.695,0.000
1605307695.155,153.809,-10.254,-14.648,49.805,0.000
1605307695.159,2.930,-37.598,-23.438,-16.113,0.000
1605307695.163,-180.176,-58.105,-40.527,-105.469,0.000
1605307695.166,-150.879,-41.992,-37.598,-86.426,0.000
1605307695.170,49.316,-42.480,-3.906,14.648,0.000
1605307695.174,162.109,-3.906,-4.395,60.547,0.000
1605307695.178,45.410,-1.953,-32.227,-3.418,0.000
1605307695.182,-148.926,-63.477,-53.711,-96.680,0.000
1605307695.186,-146.484,-41.992,-38.574,-74.219,0.000
1605307695.190,54.199,19.043,1.953,19.043,0.000
1605307695.194,182.129,37.109,11.719,68.848,0.000
1605307695.198,65.430,-16.602,-20.996,15.137,0.000
1605307695.202,-130.371,-73.242,-58.105,-83.984,0.000
1605307695.205,-170.410,-38.086,-45.410,-85.938,0.000
1605307695.209,8.301,19.531,6.836,9.766,0.000
1605307695.213,161.621,20.996,15.137,67.871,0.000
1605307695.217,83.984,-19.531,-13.672,22.461,0.000
1605307695.221,-116.211,-57.129,-40.527,-72.266,0.000
1605307695.225,-164.551,-63.965,-8.789,-66.895,0.000
1605307695.229,3.906,-41.016,31.250,18.066,0.000
1605307695.233,136.719,9.766,14.160,57.617,0.000
1605307695.237,83.496,4.883,-23.438,28.320,0.000
1605307695.241,-114.258,-42.969,-54.688,-71.289,0.000
1605307695.245,-209.473,-61.035,-46.387,-103.027,0.000
1605307695.248,-66.406,-21.973,-14.160,-32.715,0.000
1605307695.252,115.234,10.742,12.695,59.082,0.000
1605307695.256,107.422,-9.277,-6.348,51.758,0.000
1605307695.260,-78.125,-43.457,-47.363,-55.664,0.000
1605307695.264,-160.156,-27.832,1.465,-76.660,0.000
1605307695.268,-56.152,2.441,8.301,-30.273,0.000
1605307695.272,86.426,20.020,-19.043,20.020,0.000
1605307695.276,90.820,8.301,-35.156,3.418,0.000
1605307695.280,-80.078,-48.828,-65.918,-81.055,0.000
1605307695.284,-211.426,-51.758,-62.012,-133.301,0.000
1605307695.288,-121.094,-25.879,-40.527,-89.844,0.000
1605307695.291,76.172,2.441,-20.996,-3.906,0.000
1605307695.295,102.051,2.441,-39.062,-10.742,0.000
1605307695.299,-47.852,-12.207,-72.266,-86.914,0.000
1605307695.303,-191.406,-7.324,-69.336,-145.996,0.000
1605307695.307,-132.812,5.371,-44.922,-108.887,0.000
1605307695.311,69.336,44.922,-18.066,-14.648,0.000
1605307695.315,118.652,37.109,-41.504,5.859,0.000
1605307695.319,21.484,9.766,-21.484,2.441,0.000
1605307695.323,-103.027,-0.977,18.066,-48.340,0.000
1605307695.327,-134.277,-21.973,-58.594,-106.445,0.000
1605307695.330,38.574,8.789,-69.336,-28.809,0.000
1605307695.334,129.395,12.695,-41.016,12.695,0.000
1605307695.338,12.695,-22.461,-46.875,-35.156,0.000
1605307695.342,-171.875,-54.688,-64.941,-114.746,0.000
1605307695.346,-157.227,-37.598,-48.828,-104.004,0.000
1605307695.350,39.551,6.348,-23.438,-0.977,0.000
1605307695.354,147.949,14.648,-25.391,50.293,0.000
1605307695.358,73.730,2.930,0.488,27.832,0.000
1605307695.362,-131.348,-40.039,-21.973,-73.242,0.000
1605307695.366,-171.875,-38.086,-48.340,-96.191,0.000
1605307695.370,11.719,10.742,-24.902,-7.812,0.000
1605307695.373,136.230,14.648,-17.090,41.992,0.000
1605307695.377,64.941,4.883,-32.715,7.812,0.000
1605307695.381,-140.625,-28.320,-64.941,-87.402,0.000
1605307695.385,-185.547,-53.223,-57.617,-102.051,0.000
1605307695.389,10.742,-12.207,-25.391,-4.883,0.000
1605307695.393,153.809,42.480,-14.160,62.500,0.000
1605307695.397,60.547,7.324,-21.484,10.254,0.000
1605307695.401,-122.070,-66.895,-35.156,-80.566,0.000
1605307695.405,-191.895,-59.570,-33.203,-97.168,0.000
1605307695.409,-74.707,-28.320,-38.574,-50.781,0.000
1605307695.413,182.129,54.199,44.922,111.816,0.000
1605307695.416,207.031,92.285,89.844,143.555,0.000
1605307695.420,-103.516,-43.945,-35.156,-73.730,0.000
1605307695.424,-225.098,-71.777,-68.359,-134.277,0.000
1605307695.428,-86.426,-22.461,-41.504,-64.941,0.000
1605307695.432,114.258,11.230,-18.066,16.602,0.000
1605307695.436,89.355,-2.930,-41.992,-14.648,0.000
1605307695.440,-98.145,-41.504,-68.848,-100.098,0.000
1605307695.444,-213.867,-64.453,-86.914,-150.879,0.000
1605307695.448,-98.145,-18.555,-67.383,-94.727,0.000
1605307695.452,290.527,194.336,126.953,178.711,0.000
1605307695.455,243.652,143.555,67.871,119.141,0.000
1605307695.459,-106.445,-53.223,-93.262,-129.883,0.000
1605307695.463,-225.098,-80.566,-83.496,-175.293,0.000
1605307695.467,-123.535,-40.527,-62.988,-106.445,0.000
1605307695.471,86.426,22.949,-37.109,-7.812,0.000
1605307695.475,131.348,6.348,-45.410,-3.906,0.000
1605307695.479,-35.156,-43.457,-69.336,-76.660,0.000
1605307695.483,-191.895,-68.848,-89.355,-139.648,0.000
1605307695.487,-118.164,-12.695,-63.477,-91.309,0.000
1605307695.491,88.867,57.617,-30.273,13.184,0.000
1605307695.495,148.926,30.273,-38.086,27.832,0.000
1605307695.498,6.348,-31.250,-55.176,-36.621,0.000
1605307695.502,-195.312,-66.895,-109.375,-134.766,0.000
1605307695.506,-72.266,32.715,-6.348,-13.184,0.000
1605307695.510,230.469,128.906,110.840,164.551,0.000
1605307695.514,176.758,19.531,-9.766,42.969,0.000
1605307695.518,-9.766,-41.504,-67.871,-68.848,0.000
1605307695.522,-173.340,-63.965,-70.312,-115.234,0.000
1605307695.526,-140.625,-38.574,-37.598,-70.312,0.000
1605307695.530,36.133,-6.836,-26.367,0.000,0.000
1605307695.534,141.113,8.301,-25.391,35.645,0.000
1605307695.538,22.949,-30.762,-44.922,-31.738,0.000
1605307695.541,-168.457,-69.824,-59.570,-112.793,0.000
1605307695.545,27.344,113.770,128.418,93.750,0.000
1605307695.549,138.672,104.492,90.332,117.188,0.000
1605307695.553,91.797,-26.367,-51.758,9.277,0.000
1605307695.557,22.461,-40.039,-57.129,-31.738,0.000
1605307695.561,-160.156,-84.473,-72.754,-120.605,0.000
1605307695.565,-180.664,-74.219,-61.523,-110.352,0.000
1605307695.569,-28.809,-35.156,-41.992,-29.785,0.000
1605307695.573,115.234,-17.090,-17.090,39.062,0.000
1605307695.577,50.293,-53.223,-41.016,5.859,0.000
1605307695.580,-132.324,-59.570,-61.035,-98.633,0.000
1605307695.584,-179.199,-41.504,-49.805,-108.398,0.000
1605307695.588,-32.227,-31.250,-30.762,-32.227,0.000
1605307695.592,134.766,4.395,-6.348,41.504,0.000
1605307695.596,71.289,-3.906,-30.762,1.953,0.000
1605307695.600,-70.312,-11.719,3.418,-35.645,0.000
1605307695.604,-86.426,2.930,49.316,-15.137,0.000
1605307695.608,-51.758,-29.785,-8.789,-33.691,0.000
1605307695.612,86.426,-12.207,-22.949,14.160,0.000
1605307695.616,97.168,-18.066,-30.273,28.320,0.000
1605307695.620,-75.195,-50.293,-37.598,-41.504,0.000
1605307695.623,-200.195,-83.008,-51.758,-115.723,0.000
1605307695.627,-99.609,-38.086,-29.297,-66.895,0.000
1605307695.631,86.914,7.324,-16.113,21.484,0.000
1605307695.635,102.539,-18.555,-28.809,20.996,0.000
1605307695.639,91.797,66.895,116.211,97.168,0.000
1605307695.643,-81.543,28.809,72.754,-4.883,0.000
1605307695.647,-154.297,-57.129,-62.012,-102.051,0.000
1605307695.651,41.992,-30.273,-36.133,4.883,0.000
1605307695.655,94.727,-22.949,-27.344,19.043,0.000
1605307695.659,-55.176,-48.828,-45.898,-64.941,0.000
1605307695.663,-208.008,-81.543,-68.848,-141.602,0.000
1605307695.666,-152.344,-59.570,-53.711,-103.027,0.000
1605307695.670,42.480,-31.738,-39.062,1.953,0.000
1605307695.674,130.859,1.465,-21.484,43.945,0.000
1605307695.678,-14.648,-32.715,-29.785,-20.508,0.000
1605307695.682,-195.312,-88.379,-57.129,-110.840,0.000
1605307695.686,-155.273,-51.270,-41.992,-96.680,0.000
1605307695.690,25.391,7.812,-23.926,-11.719,0.000
1605307695.694,157.227,29.785,8.789,70.312,0.000
1605307695.698,66.406,-2.441,0.000,19.531,0.000
1605307695.702,-158.691,-71.777,-55.176,-101.562,0.000
1605307695.705,-167.969,-54.199,-45.410,-102.051,0.000
1605307695.709,18.066,16.113,-13.672,-10.254,0.000
1605307695.713,226.562,83.496,72.754,121.094,0.000
1605307695.717,86.914,10.742,22.461,30.762,0.000
1605307695.721,-183.105,-73.730,-65.918,-115.234,0.000
1605307695.725,-201.660,-61.523,-53.711,-113.281,0.000
1605307695.729,-13.184,-15.625,-20.996,-24.414,0.000
1605307695.733,319.336,142.090,158.203,214.355,0.000
1605307695.737,177.246,74.219,86.914,117.188,0.000
1605307695.741,-186.523,-86.426,-79.102,-126.953,0.000
1605307695.745,-224.609,-77.637,-62.500,-141.113,0.000
1605307695.748,-62.500,-40.527,-29.785,-64.453,0.000
1605307695.752,112.305,2.930,-20.020,23.438,0.000
1605307695.756,59.570,-9.766,-52.246,-11.719,0.000
1605307695.760,-116.699,-57.617,-62.012,-91.797,0.000
1605307695.764,-206.055,-83.496,-53.711,-119.629,0.000
1605307695.768,-70.801,-8.301,-22.461,-40.039,0.000
1605307695.772,128.906,46.387,-7.812,52.734,0.000
1605307695.776,83.496,-12.695,-26.855,21.484,0.000
1605307695.780,-108.398,-67.383,-24.414,-71.777,0.000
1605307695.784,-238.281,-85.449,-56.641,-133.789,0.000
1605307695.788,-49.316,9.277,10.254,2.930,0.000
1605307695.791,227.539,102.051,105.469,155.273,0.000
1605307695.795,103.516,-6.348,-10.254,34.180,0.000
1605307695.799,-106.934,-76.172,-68.359,-66.406,0.000
1605307695.803,-208.008,-81.055,-57.129,-110.352,0.000
1605307695.807,-108.887,-39.062,-24.902,-62.988,0.000
1605307695.811,75.195,0.977,-15.625,17.090,0.000
1605307695.815,124.023,-6.836,-24.414,32.715,0.000
1605307695.819,-46.387,-53.711,-58.105,-55.176,0.000
1605307695.823,-187.012,-69.336,-64.941,-110.352,0.000
1605307695.827,68.848,122.559,108.398,99.609,0.000
1605307695.830,214.355,124.023,85.938,140.137,0.000
1605307695.834,120.605,-20.020,-49.805,39.551,0.000
1605307695.838,-17.090,-48.828,-57.617,-21.484,0.000
1605307695.842,-178.223,-72.754,-62.988,-90.332,0.000
1605307695.846,-105.469,-40.039,-31.738,-56.152,0.000
1605307695.850,83.496,6.836,-19.043,24.414,0.000
1605307695.854,151.367,8.789,-26.855,60.547,0.000
1605307695.858,36.621,-31.738,-38.574,-0.977,0.000
1605307695.862,-130.859,-34.180,-44.434,-73.730,0.000
1605307695.866,-114.258,-22.949,-44.434,-49.805,0.000
1605307695.870,70.312,-15.625,-38.574,29.785,0.000
1605307695.873,178.711,10.742,-14.160,70.801,0.000
1605307695.877,23.438,-40.039,-50.293,-13.184,0.000
1605307695.881,-94.727,-21.973,-8.301,-30.273,0.000
1605307695.885,-9.277,59.570,73.242,40.039,0.000
1605307695.889,52.734,-3.418,-6.348,38.086,0.000
1605307695.893,131.348,-16.113,-28.320,60.059,0.000
1605307695.897,50.781,-32.227,-34.668,-4.395,0.000
1605307695.901,-120.605,-65.430,-46.387,-78.613,0.000
1605307695.905,-162.598,-71.777,-51.270,-86.914,0.000
1605307695.909,0.000,-16.602,-33.203,-4.883,0.000
1605307695.913,149.902,20.020,-18.555,59.082,0.000
1605307695.916,74.707,-19.531,-20.996,14.648,0.000
1605307695.920,38.574,21.484,91.797,58.105,0.000
1605307695.924,-65.430,11.719,50.781,-8.789,0.000
1605307695.928,-49.805,-28.809,-47.363,-48.828,0.000
1605307695.932,113.770,-10.254,-28.320,25.391,0.000
1605307695.936,62.500,-47.363,-43.457,-7.324,0.000
1605307695.940,-109.375,-72.266,-50.293,-72.754,0.000
1605307695.944,-204.102,-65.918,-51.758,-114.258,0.000
1605307695.948,-67.871,-33.691,-35.156,-48.340,0.000
1605307695.952,107.910,-22.949,-19.531,34.668,0.000
1605307695.955,92.773,-23.926,-28.320,20.508,0.000
1605307695.959,-81.543,-36.133,-49.316,-63.477,0.000
1605307695.963,-201.172,-64.941,-55.664,-108.398,0.000
1605307695.967,-75.195,-18.066,-18.066,-37.109,0.000
1605307695.971,90.332,8.789,-18.066,11.230,0.000
1605307695.975,166.016,10.742,31.738,78.125,0.000
1605307695.979,70.801,9.277,84.961,77.637,0.000
1605307695.983,-169.922,-70.312,-28.320,-83.984,0.000
1605307695.987,-99.121,-55.176,-57.617,-79.590,0.000
1605307695.991,83.008,0.977,-21.484,23.438,0.000
1605307695.995,103.516,-11.719,-13.672,34.668,0.000
1605307695.998,-48.828,-71.289,-42.969,-54.199,0.000
1605307696.002,-196.289,-74.707,-46.875,-117.676,0.000
1605307696.006,-128.906,-38.086,-31.250,-72.754,0.000
1605307696.010,59.082,-3.418,-16.602,22.461,0.000
1605307696.014,255.371,82.031,101.562,161.133,0.000
1605307696.018,68.359,16.602,43.457,47.852,0.000
1605307696.022,-212.402,-92.773,-69.824,-135.742,0.000
1605307696.026,-166.504,-67.871,-41.016,-96.680,0.000
1605307696.030,24.902,-22.461,-22.949,-0.488,0.000
1605307696.034,130.859,6.836,-20.020,36.133,0.000
1605307696.038,-9.766,-31.738,-40.527,-33.691,0.000
1605307696.041,-188.477,-74.707,-43.945,-114.258,0.000
1605307696.045,-166.504,-56.152,-31.738,-100.098,0.000
1605307696.049,32.715,7.812,-12.695,-1.953,0.000
1605307696.053,142.578,14.648,-6.836,48.828,0.000
1605307696.057,14.648,-36.133,-26.367,-14.648,0.000
1605307696.061,-155.273,-64.941,-35.645,-83.984,0.000
1605307696.065,-198.730,-78.613,-57.617,-106.934,0.000
1605307696.069,58.594,51.758,43.457,43.945,0.000
1605307696.073,282.715,148.926,128.418,182.617,0.000
1605307696.077,49.805,-20.508,-20.020,5.859,0.000
1605307696.080,-185.059,-93.750,-74.707,-129.395,0.000
1605307696.084,-207.520,-84.473,-56.641,-115.723,0.000
1605307696.088,-13.672,-39.062,-20.020,-10.254,0.000
1605307696.092,142.090,-9.766,-8.301,43.945,0.000
1605307696.096,60.547,-21.484,-24.414,-9.277,0.000
1605307696.100,-144.043,-63.965,-62.500,-111.816,0.000
1605307696.104,-193.359,-56.641,-48.340,-117.676,0.000
1605307696.108,112.305,101.074,106.934,102.539,0.000
1605307696.112,224.121,89.844,71.289,131.836,0.000
1605307696.116,69.336,-12.695,-43.945,1.953,0.000
1605307696.120,-90.332,-51.270,-54.688,-68.848,0.000
1605307696.123,-189.941,-71.777,-62.012,-101.562,0.000
1605307696.127,-55.664,-20.996,-41.992,-29.297,0.000
1605307696.131,124.512,11.719,-19.531,53.223,0.000
1605307696.135,117.188,-5.371,-28.809,41.992,0.000
1605307696.139,-75.684,-65.918,-56.152,-56.152,0.000
1605307696.143,-184.570,-64.941,-52.734,-110.352,0.000
1605307696.147,-43.945,-20.020,-28.809,-33.691,0.000
1605307696.151,107.910,-9.277,-22.949,42.480,0.000
1605307696.155,127.930,8.789,-12.207,44.434,0.000
1605307696.159,-71.289,-59.082,-62.500,-72.266,0.000
1605307696.163,-129.883,-10.254,-1.953,-54.688,0.000
1605307696.166,65.918,123.047,113.770,95.703,0.000
1605307696.170,97.168,-2.441,-1.953,39.551,0.000
1605307696.174,95.703,-31.250,-45.410,7.812,0.000
1605307696.178,-44.922,-28.320,-47.363,-42.969,0.000
1605307696.182,-178.223,-61.035,-45.410,-95.703,0.000
1605307696.186,-124.512,-65.918,-36.133,-68.848,0.000
1605307696.190,62.500,-19.531,-22.949,24.414,0.000
1605307696.194,125.488,-3.418,-27.832,45.410,0.000
1605307696.198,-17.090,-40.039,-44.434,-21.973,0.000
1605307696.202,-14.160,88.379,111.328,68.359,0.000
1605307696.205,-37.109,49.316,75.195,26.367,0.000
1605307696.209,4.883,-39.062,-37.598,-25.391,0.000
1605307696.213,98.633,-25.391,-25.391,25.391,0.000
1605307696.217,-27.344,-77.637,-43.457,-33.203,0.000
1605307696.221,-185.059,-87.891,-47.363,-104.980,0.000
1605307696.225,-165.039,-69.824,-54.199,-101.562,0.000
1605307696.229,15.137,-35.645,-32.715,-14.648,0.000
1605307696.233,116.211,-22.461,-31.250,30.762,0.000
1605307696.237,29.297,-17.090,-35.156,-9.277,0.000
1605307696.241,-139.648,-50.293,-41.016,-91.309,0.000
1605307696.245,-192.383,-87.402,-56.152,-105.957,0.000
1605307696.248,-2.930,-13.672,-17.578,-7.324,0.000
1605307696.252,119.629,-2.441,-28.809,26.855,0.000
1605307696.256,100.586,17.090,22.461,57.129,0.000
1605307696.260,10.254,55.176,91.797,52.246,0.000
1605307696.264,-178.223,-62.500,-27.832,-96.191,0.000
1605307696.268,-61.035,-44.434,-45.898,-48.828,0.000
1605307696.272,114.258,2.930,-18.555,37.109,0.000
1605307696.276,63.965,-27.344,-23.438,1.953,0.000
1605307696.280,-131.836,-82.031,-51.270,-93.262,0.000
1605307696.284,-203.125,-83.984,-54.199,-121.582,0.000
1605307696.288,-57.129,-44.434,-33.691,-55.176,0.000
1605307696.291,107.422,3.418,-12.207,33.691,0.000
1605307696.295,243.164,139.648,124.023,179.688,0.000
1605307696.299,3.418,41.016,59.082,27.832,0.000
1605307696.303,-237.305,-109.863,-59.082,-153.320,0.000
1605307696.307,-104.004,-62.988,-38.086,-75.684,0.000
1605307696.311,63.965,-37.598,-31.738,6.836,0.000
1605307696.315,83.984,-27.832,-22.461,11.230,0.000
1605307696.319,-80.078,-55.176,-43.945,-68.848,0.000
1605307696.323,-205.078,-82.520,-52.246,-107.910,0.000
1605307696.327,-102.051,-64.941,-32.715,-63.477,0.000
1605307696.330,100.098,-7.324,-10.254,23.926,0.000
1605307696.334,129.395,-0.488,-14.648,43.945,0.000
1605307696.338,-59.082,-56.641,-47.363,-45.410,0.000
1605307696.342,-186.035,-60.547,-42.969,-106.445,0.000
1605307696.346,-125.000,-33.203,-40.527,-72.754,0.000
1605307696.350,103.516,27.832,24.414,74.219,0.000
1605307696.354,220.703,69.336,87.402,136.719,0.000
1605307696.358,-22.461,-49.805,-17.578,-37.598,0.000
1605307696.362,-215.820,-108.887,-57.617,-134.277,0.000
1605307696.366,-139.160,-63.477,-31.738,-78.613,0.000
1605307696.370,65.430,-9.766,-11.719,20.020,0.000
1605307696.373,126.953,-17.090,-15.137,43.945,0.000
1605307696.377,-20.020,-49.805,-33.691,-34.180,0.000
1605307696.381,-195.801,-94.238,-57.129,-118.164,0.000
1605307696.385,-166.016,-82.520,-43.457,-92.285,0.000
1605307696.389,143.555,86.426,86.426,101.562,0.000
1605307696.393,213.867,78.613,65.430,114.746,0.000
1605307696.397,-14.160,-64.941,-45.410,-40.039,0.000
1605307696.401,-194.336,-112.793,-55.664,-119.141,0.000
1605307696.405,-181.152,-85.449,-42.969,-108.398,0.000
1605307696.409,23.438,-12.207,-9.277,-3.906,0.000
1605307696.413,129.883,-2.930,-10.254,42.480,0.000
1605307696.416,22.461,-48.828,-39.062,-20.508,0.000
1605307696.420,-163.086,-94.238,-58.594,-101.074,0.000
1605307696.424,-185.547,-57.129,-42.969,-96.680,0.000
1605307696.428,4.883,-1.953,-17.090,2.441,0.000
1605307696.432,133.301,-10.254,-14.160,49.316,0.000
1605307696.436,60.547,-16.602,-20.020,-0.488,0.000
1605307696.440,-142.578,-78.125,-56.641,-101.074,0.000
1605307696.444,-140.137,-52.246,6.836,-60.547,0.000
1605307696.448,96.680,62.012,94.238,95.215,0.000
1605307696.452,143.066,13.672,7.324,59.570,0.000
1605307696.455,50.781,-32.715,-38.574,-14.648,0.000
1605307696.459,-139.160,-71.777,-54.688,-93.750,0.000
1605307696.463,-199.219,-68.848,-39.062,-107.422,0.000
1605307696.467,-50.781,-31.738,-23.438,-41.504,0.000
1605307696.471,102.051,2.441,-12.695,40.039,0.000
1605307696.475,77.637,-13.672,-28.320,20.020,0.000
1605307696.479,-100.098,-73.242,-65.430,-90.820,0.000
1605307696.483,-87.402,23.926,56.152,-6.348,0.000
1605307696.487,19.043,48.828,62.988,43.457,0.000
1605307696.491,94.238,-18.555,-14.160,23.438,0.000
1605307696.495,91.309,-24.414,-21.973,5.371,0.000
1605307696.498,-78.613,-77.637,-53.711,-81.055,0.000
1605307696.502,-200.684,-86.914,-49.316,-118.652,0.000
1605307696.506,-102.051,-42.480,-24.414,-70.801,0.000
1605307696.510,86.914,-12.695,-15.137,14.160,0.000
1605307696.514,93.750,-40.527,-32.715,12.695,0.000
1605307696.518,-71.777,-47.363,-43.945,-58.105,0.000
1605307696.522,-185.547,-49.316,-42.969,-98.145,0.000
1605307696.526,-119.629,-43.457,-32.715,-73.730,0.000
1605307696.530,77.637,16.113,0.977,19.043,0.000
1605307696.534,117.676,12.207,-18.555,28.809,0.000
1605307696.538,1.465,-37.109,-2.441,2.441,0.000
1605307696.541,-87.891,-44.434,48.828,-3.906,0.000
1605307696.545,-129.883,-59.570,-17.578,-65.918,0.000
1605307696.549,44.434,-15.625,-25.879,3.906,0.000
1605307696.553,139.648,12.207,-13.672,46.387,0.000
1605307696.557,-0.488,-28.809,-25.391,-30.762,0.000
1605307696.561,-183.594,-77.637,-48.340,-115.723,0.000
1605307696.565,-177.734,-51.270,-37.109,-103.516,0.000
1605307696.569,-5.859,-0.488,-18.066,-31.250,0.000
1605307696.573,105.957,12.695,-7.324,14.648,0.000
1605307696.577,158.691,83.496,124.512,96.191,0.000
1605307696.580,-99.609,17.578,56.152,-62.500,0.000
1605307696.584,-261.719,-62.500,-65.430,-201.172,0.000
1605307696.588,-65.918,-22.949,-34.180,-103.516,0.000
1605307696.592,30.273,-29.297,-28.809,-70.312,0.000
1605307696.596,-75.684,-41.016,-31.738,-120.117,0.000
1605307696.600,-268.066,-60.059,-51.270,-224.121,0.000
1605307696.604,-303.223,-63.965,-53.223,-238.281,0.000
1605307696.608,-142.090,-38.574,-33.691,-148.926,0.000
1605307696.612,14.648,5.859,-18.555,-65.918,0.000
1605307696.616,-44.434,-15.137,-25.879,-86.426,0.000
1605307696.620,-237.305,-75.684,-47.852,-181.641,0.000
1605307696.623,-283.203,-62.500,-37.109,-194.824,0.000
1605307696.627,-151.855,-38.086,-54.688,-133.789,0.000
1605307696.631,117.188,62.012,33.203,35.156,0.000
1605307696.635,191.406,127.930,127.930,115.723,0.000
1605307696.639,-147.461,-55.664,-30.762,-104.004,0.000
1605307696.643,-291.016,-112.305,-87.891,-174.316,0.000
1605307696.647,-126.465,-46.387,-45.410,-90.332,0.000
1605307696.651,74.219,-9.766,-10.254,0.000,0.000
1605307696.655,44.922,-38.574,-23.926,-11.230,0.000
1605307696.659,-147.949,-88.379,-49.316,-97.656,0.000
1605307696.663,-249.512,-111.328,-57.617,-143.555,0.000
1605307696.666,-131.348,-74.219,-31.250,-77.148,0.000
1605307696.670,229.004,127.930,149.902,171.875,0.000
1605307696.674,209.473,90.820,95.703,134.277,0.000
1605307696.678,-113.281,-92.773,-65.918,-89.844,0.000
1605307696.682,-231.934,-113.281,-61.523,-134.277,0.000
1605307696.686,-126.465,-81.543,-42.480,-76.660,0.000
1605307696.690,76.172,-31.738,-13.672,18.555,0.000
1605307696.694,104.980,-20.996,-16.602,32.227,0.000
1605307696.698,-54.688,-70.312,-48.828,-34.180,0.000
1605307696.702,-207.520,-118.652,-57.129,-93.262,0.000
1605307696.705,-123.047,-53.711,-31.250,-53.711,0.000
1605307696.709,84.473,-10.254,-20.996,36.133,0.000
1605307696.713,137.207,-37.598,-23.926,50.781,0.000
1605307696.717,-1.465,-51.758,-20.508,-9.277,0.000
1605307696.721,-208.496,-97.656,-72.754,-118.164,0.000
1605307696.725,-61.035,-3.906,30.762,0.000,0.000
1605307696.729,278.320,139.160,175.781,220.703,0.000
1605307696.733,187.500,19.043,15.137,99.121,0.000
1605307696.737,-15.137,-67.383,-59.570,-33.203,0.000
1605307696.741,-159.668,-77.148,-49.805,-83.984,0.000
1605307696.745,-127.930,-59.082,-32.227,-54.688,0.000
1605307696.748,49.805,-27.832,-20.020,20.020,0.000
1605307696.752,138.672,-12.207,-19.531,54.688,0.000
1605307696.756,13.184,-48.828,-48.340,-15.625,0.000
1605307696.760,-150.879,-80.078,-70.801,-93.750,0.000
1605307696.764,41.016,26.367,126.953,106.445,0.000
1605307696.768,161.621,42.969,110.352,144.531,0.000
1605307696.772,114.746,-18.066,-39.551,20.996,0.000
1605307696.776,40.039,-44.434,-46.387,-14.160,0.000
1605307696.780,-132.812,-85.449,-63.477,-83.496,0.000
1605307696.784,-148.926,-71.289,-44.922,-75.195,0.000
1605307696.788,7.812,-25.391,-27.344,7.324,0.000
1605307696.791,150.391,-2.930,-23.438,60.059,0.000
1605307696.795,75.195,-53.223,-45.898,10.742,0.000
1605307696.799,-110.352,-70.801,-58.594,-71.289,0.000
1605307696.803,-156.738,-45.898,-37.109,-88.867,0.000
1605307696.807,-34.180,-30.273,-23.438,-22.949,0.000
1605307696.811,129.395,12.207,-3.418,64.941,0.000
1605307696.815,79.590,3.906,-37.598,6.348,0.000
1605307696.819,-34.668,-59.082,-1.465,-19.043,0.000
1605307696.823,-36.133,-88.379,85.449,48.828,0.000
1605307696.827,-39.551,-57.129,-5.859,-10.742,0.000
1605307696.830,86.914,-9.277,-30.273,23.438,0.000
1605307696.834,99.609,-10.254,-30.273,24.902,0.000
1605307696.838,-89.355,-50.781,-65.918,-70.801,0.000
1605307696.842,-206.543,-82.520,-69.336,-124.512,0.000
1605307696.846,-78.125,-27.832,-33.691,-59.570,0.000
1605307696.850,100.098,20.020,-23.438,25.879,0.000
1605307696.854,109.863,1.465,-22.949,35.645,0.000
1605307696.858,155.762,34.668,142.578,150.391,0.000
1605307696.862,-22.461,-0.488,84.473,44.434,0.000
1605307696.866,-133.789,-44.922,-62.012,-79.102,0.000
1605307696.870,56.641,-10.254,-43.945,9.766,0.000
1605307696.873,109.863,-15.137,-40.039,23.926,0.000
1605307696.877,-42.969,-52.734,-40.527,-50.293,0.000
1605307696.881,-212.891,-81.055,-60.547,-121.582,0.000
1605307696.885,-147.461,-58.594,-48.828,-80.078,0.000
1605307696.889,50.293,-24.414,-29.297,4.395,0.000
1605307696.893,121.094,-0.488,-26.367,37.109,0.000
1605307696.897,-20.996,-30.273,-44.922,-24.414,0.000
1605307696.901,-182.129,-72.266,-61.035,-108.887,0.000
1605307696.905,-121.582,-31.250,-30.273,-68.848,0.000
1605307696.909,32.715,-7.324,-34.668,-0.977,0.000
1605307696.913,189.453,34.180,36.133,100.098,0.000
1605307696.916,173.340,68.359,116.211,138.672,0.000
1605307696.920,-144.043,-75.195,-33.691,-84.473,0.000
1605307696.924,-181.641,-81.055,-63.965,-117.676,0.000
1605307696.928,28.809,-0.488,-18.555,11.230,0.000
1605307696.932,142.578,8.789,-9.277,56.152,0.000
1605307696.936,27.344,-33.691,-29.297,-6.836,0.000
1605307696.940,-170.410,-82.031,-51.758,-98.145,0.000
1605307696.944,-197.266,-77.637,-54.688,-122.559,0.000
1605307696.948,-14.160,-28.809,-45.410,-33.691,0.000
1605307696.952,221.680,0.000,52.734,122.559,0.000
1605307696.955,107.422,-26.367,29.785,50.293,0.000
1605307696.959,-153.320,-58.594,-59.570,-114.258,0.000
1605307696.963,-202.637,-69.824,-62.500,-119.629,0.000
1605307696.967,-38.086,-38.574,-36.133,-27.832,0.000
1605307696.971,133.789,18.555,-9.766,43.945,0.000
1605307696.975,69.824,4.883,-30.762,-2.441,0.000
1605307696.979,-125.488,-63.477,-54.688,-85.449,0.000
1605307696.983,-193.359,-68.848,-48.340,-106.934,0.000
1605307696.987,-39.062,-1.465,-19.043,-32.715,0.000
1605307696.991,130.859,20.996,-4.395,43.945,0.000
1605307696.995,90.332,-15.137,-23.926,8.301,0.000
1605307696.998,-99.121,-50.781,-41.504,-72.266,0.000
1605307697.002,-214.355,-55.664,-52.246,-112.305,0.000
1605307697.006,-8.301,12.695,36.133,15.137,0.000
1605307697.010,234.375,65.430,112.305,147.461,0.000
1605307697.014,107.910,-1.465,-0.977,31.738,0.000
1605307697.018,-121.582,-67.383,-62.012,-98.633,0.000
1605307697.022,-238.770,-83.984,-56.641,-141.113,0.000
1605307697.026,-113.770,-38.574,-22.949,-67.383,0.000
1605307697.030,75.195,6.348,-9.766,1.953,0.000
1605307697.034,63.477,-5.371,-28.809,-38.086,0.000
1605307697.038,-132.324,-53.711,-55.176,-142.090,0.000
1605307697.041,-280.273,-53.223,-49.316,-195.801,0.000
1605307697.045,-148.438,-17.090,25.391,-103.027,0.000
1605307697.049,14.160,8.789,24.902,-49.805,0.000
1605307697.053,-1.465,-8.789,-23.438,-98.145,0.000
1605307697.057,-180.664,-64.941,-42.969,-193.359,0.000
1605307697.061,-341.309,-98.145,-52.734,-259.277,0.000
1605307697.065,-273.926,-66.895,-29.297,-221.191,0.000
1605307697.069,-79.102,-10.742,-8.789,-121.094,0.000
1605307697.073,-13.672,-3.906,-14.160,-77.148,0.000
1605307697.077,-151.855,-67.383,-41.504,-162.598,0.000
1605307697.080,-294.434,-67.871,-40.039,-221.191,0.000
1605307697.084,-257.324,-34.180,-21.484,-180.664,0.000
1605307697.088,-77.637,-21.973,-12.695,-93.262,0.000
1605307697.092,42.480,8.301,-0.488,-33.203,0.000
1605307697.096,-87.402,-45.898,-48.340,-100.098,0.000
1605307697.100,-187.500,-20.996,-2.441,-106.934,0.000
1605307697.104,-83.008,72.266,81.543,-17.090,0.000
1605307697.108,-6.836,-7.812,-4.395,-27.832,0.000
1605307697.112,69.824,-32.715,-32.715,-1.953,0.000
1605307697.116,-18.066,-54.688,-54.688,-33.691,0.000
1605307697.120,-183.105,-89.355,-63.965,-102.539,0.000
1605307697.123,-192.383,-87.891,-36.133,-89.355,0.000
1605307697.127,-8.301,-20.996,-14.648,-9.766,0.000
1605307697.131,124.512,-10.742,-13.184,41.016,0.000
1605307697.135,48.828,-51.270,-28.320,20.996,0.000
1605307697.139,-1.953,70.801,60.059,50.293,0.000
1605307697.143,-78.613,35.156,30.273,-1.465,0.000
1605307697.147,-32.227,-58.594,-46.875,-26.367,0.000
1605307697.151,129.395,-36.133,-29.785,53.223,0.000
1605307697.155,90.332,-54.688,-44.922,40.527,0.000
1605307697.159,-89.844,-76.172,-60.547,-43.945,0.000
1605307697.163,-175.781,-87.402,-63.965,-75.684,0.000
1605307697.166,-16.602,-47.852,-46.875,-7.324,0.000
1605307697.170,165.527,-26.855,-33.691,66.895,0.000
1605307697.174,135.254,-21.973,-38.574,68.848,0.000
1605307697.178,-44.922,-44.922,-49.805,-15.137,0.000
1605307697.182,-148.926,-83.008,-52.734,-62.012,0.000
1605307697.186,-9.766,-38.086,-22.461,14.648,0.000
1605307697.190,153.809,-19.531,-23.438,78.613,0.000
1605307697.194,200.195,24.414,8.301,115.723,0.000
1605307697.198,94.727,61.035,44.922,94.238,0.000
1605307697.202,-121.582,-71.289,-30.762,-41.992,0.000
1605307697.205,-46.387,-70.801,-33.691,-10.254,0.000
1605307697.209,146.973,-15.137,-13.672,80.078,0.000
1605307697.213,164.062,-11.719,-19.531,83.496,0.000
1605307697.217,-7.324,-58.105,-39.551,-0.488,0.000
1605307697.221,-144.531,-75.684,-44.922,-66.406,0.000
1605307697.225,-81.543,-52.734,-41.504,-29.297,0.000
1605307697.229,95.703,-18.066,-20.508,49.316,0.000
1605307697.233,256.836,104.004,80.566,159.180,0.000
1605307697.237,73.242,36.621,27.344,58.105,0.000
1605307697.241,-178.711,-87.402,-63.965,-95.703,0.000
1605307697.245,-113.770,-62.012,-37.598,-49.316,0.000
1605307697.248,75.684,-32.715,-16.602,35.645,0.000
1605307697.252,159.668,-12.207,-5.371,69.336,0.000
1605307697.256,13.672,-54.199,-37.109,-2.441,0.000
1605307697.260,-163.086,-92.285,-53.223,-78.613,0.000
1605307697.264,-133.789,-74.707,-33.691,-56.641,0.000
1605307697.268,62.988,-2.930,-8.301,37.109,0.000
1605307697.272,170.410,19.531,-1.953,76.172,0.000
1605307697.276,41.504,-41.016,-36.621,1.465,0.000
1605307697.280,-141.602,-80.078,-52.734,-80.566,0.000
1605307697.284,-173.828,-86.426,-58.594,-87.891,0.000
1605307697.288,64.941,20.508,14.160,53.711,0.000
1605307697.291,264.160,119.141,82.031,171.875,0.000
1605307697.295,70.801,-14.160,-20.020,20.020,0.000
1605307697.299,-150.391,-89.844,-65.918,-103.027,0.000
1605307697.303,-166.016,-53.711,-42.969,-84.961,0.000
1605307697.307,2.441,-3.906,-11.719,-3.906,0.000
1605307697.311,150.391,7.812,-7.324,59.570,0.000
1605307697.315,83.008,-9.277,-27.832,29.297,0.000
1605307697.319,-118.164,-60.059,-48.828,-62.500,0.000
1605307697.323,-179.199,-64.453,-43.457,-90.820,0.000
1605307697.327,99.121,144.531,89.844,92.773,0.000
1605307697.330,235.840,131.348,73.242,136.719,0.000
1605307697.334,83.984,-35.645,-37.109,18.555,0.000
1605307697.338,-105.957,-77.148,-56.152,-58.105,0.000
1605307697.342,-184.082,-83.496,-56.641,-97.656,0.000
1605307697.346,-38.086,-36.621,-22.949,-26.855,0.000
1605307697.350,114.746,-15.625,-20.020,39.062,0.000
1605307697.354,92.773,-31.738,-34.668,22.949,0.000
1605307697.358,-95.215,-80.566,-49.316,-66.895,0.000
1605307697.362,-186.035,-69.824,-45.410,-109.863,0.000
1605307697.366,-61.523,-29.297,-12.695,-40.039,0.000
1605307697.370,108.398,-16.113,2.441,40.039,0.000
1605307697.373,126.953,-8.789,-2.930,45.410,0.000
1605307697.377,-62.500,-55.664,-35.156,-59.082,0.000
1605307697.381,-155.762,-42.480,-21.484,-83.496,0.000
1605307697.385,-3.418,49.805,41.504,22.461,0.000
1605307697.389,111.816,9.766,3.418,46.387,0.000
1605307697.393,110.352,-24.902,-26.855,30.762,0.000
1605307697.397,-34.668,-52.734,-44.922,-37.109,0.000
1605307697.401,-177.246,-70.801,-49.316,-93.262,0.000
1605307697.405,-117.676,-55.176,-38.086,-70.801,0.000
1605307697.409,76.660,-2.930,-19.043,11.230,0.000
1605307697.413,125.488,-11.719,-29.297,32.715,0.000
1605307697.416,-28.320,-54.688,-48.340,-32.715,0.000
1605307697.420,-76.660,89.844,47.363,-14.160,0.000
1605307697.424,-57.129,66.406,35.645,-9.277,0.000
1605307697.428,32.715,-41.016,-27.344,7.812,0.000
1605307697.432,137.207,-23.926,-20.020,47.852,0.000
1605307697.436,3.418,-60.547,-41.016,-19.043,0.000
1605307697.440,-177.246,-83.008,-52.246,-104.492,0.000
1605307697.444,-157.227,-67.871,-41.992,-101.074,0.000
1605307697.448,21.973,-31.738,-25.879,-14.160,0.000
1605307697.452,129.883,-29.297,-21.973,41.992,0.000
1605307697.455,38.574,-24.902,-26.367,-3.418,0.000
1605307697.459,-144.531,-52.734,-44.434,-91.797,0.000
1605307697.463,-173.340,-82.520,-41.992,-91.309,0.000
1605307697.467,26.367,-7.812,-8.301,5.371,0.000
1605307697.471,137.207,-11.230,-25.879,46.387,0.000
1605307697.475,90.820,24.414,8.301,47.363,0.000
1605307697.479,-16.602,97.168,66.895,21.484,0.000
1605307697.483,-158.691,-49.316,-18.555,-83.984,0.000
1605307697.487,-46.387,-60.059,-32.715,-43.945,0.000
1605307697.491,114.746,-10.254,-9.766,41.016,0.000
1605307697.495,71.777,-29.785,-19.043,18.066,0.000
1605307697.498,-123.535,-93.262,-46.387,-88.867,0.000
1605307697.502,-196.289,-75.195,-41.016,-108.398,0.000
1605307697.506,-43.457,-31.738,-32.227,-27.832,0.000
1605307697.510,125.977,-24.414,-16.113,45.898,0.000
1605307697.514,209.961,156.250,96.680,130.859,0.000
1605307697.518,-24.902,72.754,38.574,-1.465,0.000
1605307697.522,-236.328,-117.676,-60.059,-130.859,0.000
1605307697.526,-73.730,-62.988,-29.297,-43.457,0.000
1605307697.530,108.887,-33.691,-21.973,33.203,0.000
1605307697.534,105.469,-25.879,-24.414,31.738,0.000
1605307697.538,-73.730,-60.547,-56.152,-66.895,0.000
1605307697.541,-198.730,-83.496,-72.266,-110.352,0.000
1605307697.545,-74.219,-55.176,-44.434,-47.363,0.000
1605307697.549,128.906,11.230,-15.625,38.574,0.000
1605307697.553,136.230,7.812,-17.578,43.945,0.000
1605307697.557,-40.527,-57.129,-44.922,-50.781,0.000
1605307697.561,-167.969,-67.871,-47.363,-91.797,0.000
1605307697.565,-104.004,-36.621,-42.480,-58.105,0.000
1605307697.569,141.113,37.109,25.391,76.660,0.000
1605307697.573,245.605,61.523,86.426,158.691,0.000
1605307697.577,-20.508,-57.129,-27.344,-23.926,0.000
1605307697.580,-215.820,-103.516,-76.172,-138.184,0.000
1605307697.584,-143.066,-58.594,-42.969,-85.938,0.000
1605307697.588,82.520,8.789,1.465,30.273,0.000
1605307697.592,138.184,3.418,-16.113,39.062,0.000
1605307697.596,-18.555,-42.480,-45.898,-44.922,0.000
1605307697.600,-180.176,-72.754,-58.105,-112.305,0.000
1605307697.604,-151.367,-60.059,-44.922,-76.660,0.000
1605307697.608,209.961,114.258,135.254,161.621,0.000
1605307697.612,261.230,87.402,90.820,149.414,0.000
1605307697.616,-32.227,-76.172,-64.941,-56.641,0.000
1605307697.620,-200.195,-93.262,-62.988,-126.465,0.000
1605307697.623,-182.617,-65.918,-55.664,-102.539,0.000
1605307697.627,15.625,-9.277,-13.184,1.465,0.000
1605307697.631,126.465,-14.160,-14.160,33.203,0.000
1605307697.635,20.996,-56.152,-52.734,-24.902,0.000
1605307697.639,-160.156,-90.332,-60.059,-113.281,0.000
1605307697.643,-181.641,-49.805,-44.922,-113.281,0.000
1605307697.647,-2.441,-4.883,-26.367,-22.949,0.000
1605307697.651,122.070,-8.789,-22.461,26.855,0.000
1605307697.655,49.805,-19.531,-20.508,10.254,0.000
1605307697.659,-160.156,-88.379,-65.918,-87.891,0.000
1605307697.663,-118.164,9.277,15.625,-32.715,0.000
1605307697.666,178.711,201.660,159.668,162.598,0.000
1605307697.670,161.133,37.598,24.902,79.102,0.000
1605307697.674,21.973,-55.664,-54.688,-29.297,0.000
1605307697.678,-153.320,-75.195,-56.152,-112.793,0.000
1605307697.682,-199.707,-79.590,-42.969,-113.281,0.000
1605307697.686,-49.805,-55.664,-30.273,-36.133,0.000
1605307697.690,107.910,-12.695,-19.043,30.273,0.000
1605307697.694,62.012,-42.480,-43.945,-0.488,0.000
1605307697.698,-135.254,-98.145,-73.730,-92.285,0.000
1605307697.702,-41.016,136.230,100.098,48.828,0.000
1605307697.705,51.270,129.883,87.402,69.336,0.000
1605307697.709,56.641,-44.434,-40.527,-0.488,0.000
1605307697.713,62.012,-54.199,-42.480,-0.488,0.000
1605307697.717,-101.562,-88.867,-60.059,-92.285,0.000
1605307697.721,-209.473,-84.961,-50.781,-122.559,0.000
1605307697.725,-115.723,-69.824,-39.062,-65.430,0.000
1605307697.729,76.172,-44.434,-27.832,18.555,0.000
1605307697.733,91.309,-48.340,-47.852,7.812,0.000
1605307697.737,-80.566,-58.594,-57.617,-66.895,0.000
1605307697.741,-202.637,-74.219,-43.457,-100.098,0.000
1605307697.745,-122.559,-84.473,-37.109,-77.148,0.000
1605307697.748,88.867,-3.418,-5.859,13.672,0.000
1605307697.752,89.355,-44.922,-49.316,-1.953,0.000
1605307697.756,31.250,20.996,23.438,23.438,0.000
1605307697.760,29.297,174.316,144.531,88.379,0.000
1605307697.764,-119.629,-35.156,-19.043,-65.918,0.000
1605307697.768,0.000,-73.730,-55.664,-32.715,0.000
1605307697.772,104.492,-29.785,-32.227,25.879,0.000
1605307697.776,-25.879,-63.477,-48.828,-43.457,0.000
1605307697.780,-200.195,-110.352,-66.895,-128.906,0.000
1605307697.784,-158.203,-80.566,-56.152,-103.516,0.000
1605307697.788,41.504,-31.738,-31.738,-7.812,0.000
1605307697.791,124.512,-11.719,-20.020,35.156,0.000
1605307697.795,180.176,170.410,119.141,134.766,0.000
1605307697.799,-32.715,77.637,62.500,15.137,0.000
1605307697.803,-203.613,-107.910,-71.289,-123.047,0.000
1605307697.807,-10.742,-70.801,-40.039,-32.227,0.000
1605307697.811,108.398,-56.641,-32.715,9.766,0.000
1605307697.815,21.973,-49.316,-41.992,-26.367,0.000
1605307697.819,-167.969,-96.191,-66.895,-117.676,0.000
1605307697.823,-198.242,-104.492,-67.871,-122.070,0.000
1605307697.827,-18.066,-52.246,-44.434,-37.109,0.000
1605307697.830,122.559,-0.488,-14.648,38.574,0.000
1605307697.834,50.293,-29.297,-25.879,7.324,0.000
1605307697.838,-149.902,-105.957,-58.594,-104.492,0.000
1605307697.842,-186.035,-79.102,-38.086,-99.609,0.000
1605307697.846,-44.434,-49.805,-35.156,-38.086,0.000
1605307697.850,167.480,53.711,32.715,76.660,0.000
1605307697.854,220.215,147.461,105.957,141.602,0.000
1605307697.858,-100.098,-63.477,-27.344,-59.082,0.000
1605307697.862,-231.934,-113.770,-65.918,-139.648,0.000
1605307697.866,-62.988,-26.855,-28.320,-49.316,0.000
1605307697.870,116.211,10.254,-8.789,42.969,0.000
1605307697.873,79.102,-23.926,-26.367,15.625,0.000
1605307697.877,-102.539,-69.336,-54.199,-82.520,0.000
1605307697.881,-199.707,-79.102,-66.406,-114.258,0.000
1605307697.885,-82.520,-43.945,-40.039,-44.434,0.000
1605307697.889,248.047,182.617,116.211,175.781,0.000
1605307697.893,213.379,132.324,73.242,133.301,0.000
1605307697.897,-113.281,-92.773,-75.195,-86.914,0.000
1605307697.901,-228.516,-109.863,-68.848,-134.277,0.000
1605307697.905,-98.633,-60.059,-32.715,-77.148,0.000
1605307697.909,98.633,-6.348,-8.789,16.113,0.000
1605307697.913,92.285,-28.320,-25.879,8.301,0.000
1605307697.916,-74.219,-70.801,-54.688,-78.125,0.000
1605307697.920,-211.426,-104.980,-66.406,-136.230,0.000
1605307697.924,-129.395,-50.781,-39.551,-85.449,0.000
1605307697.928,74.707,5.859,-10.254,7.812,0.000
1605307697.932,119.629,-21.484,-23.438,29.297,0.000
1605307697.936,-21.484,-46.387,-35.156,-30.762,0.000
1605307697.940,-211.914,-113.281,-65.430,-131.836,0.000
1605307697.944,-114.258,-2.441,0.000,-37.598,0.000
1605307697.948,190.430,183.105,102.539,140.137,0.000
1605307697.952,152.344,12.207,-1.465,57.617,0.000
1605307697.955,-32.227,-92.773,-61.035,-47.852,0.000
1605307697.959,-178.223,-95.703,-65.430,-116.211,0.000
1605307697.963,-167.480,-72.754,-62.988,-101.074,0.000
1605307697.967,22.949,-42.969,-34.668,-11.230,0.000
1605307697.971,135.254,-17.090,-29.297,33.203,0.000
1605307697.975,0.488,-47.363,-62.500,-35.156,0.000
1605307697.979,-166.016,-86.914,-69.824,-114.258,0.000
1605307697.983,2.930,151.367,95.703,51.758,0.000
1605307697.987,137.207,149.902,83.984,95.703,0.000
1605307697.991,102.539,-37.598,-44.922,5.371,0.000
1605307697.995,5.859,-69.336,-55.664,-28.809,0.000
1605307697.998,-170.410,-101.562,-64.941,-100.586,0.000
1605307698.002,-182.617,-70.801,-51.270,-99.609,0.000
1605307698.006,-18.555,-40.527,-34.180,-24.414,0.000
1605307698.010,122.559,-19.043,-17.578,36.133,0.000
1605307698.014,46.387,-50.781,-44.922,-4.395,0.000
1605307698.018,-136.719,-61.523,-66.406,-85.449,0.000
1605307698.022,-195.801,-47.852,-48.340,-100.098,0.000
1605307698.026,-64.453,-48.340,-28.320,-41.504,0.000
1605307698.030,120.117,-13.184,-3.906,43.457,0.000
1605307698.034,63.477,-52.246,-38.574,7.324,0.000
1605307698.038,-66.895,9.277,-4.883,-30.762,0.000
1605307698.041,-63.965,141.602,74.707,10.254,0.000
1605307698.045,-62.012,-10.254,-9.277,-26.855,0.000
1605307698.049,61.035,-55.176,-33.691,5.859,0.000
1605307698.053,65.918,-39.551,-43.945,3.906,0.000
1605307698.057,-104.004,-69.336,-51.270,-73.730,0.000
1605307698.061,-218.750,-98.633,-46.387,-115.234,0.000
1605307698.065,-102.051,-55.664,-31.738,-53.223,0.000
1605307698.069,89.355,-22.949,-20.508,18.555,0.000
1605307698.073,93.262,-45.410,-29.785,6.348,0.000
1605307698.077,16.113,117.676,40.039,15.625,0.000
1605307698.080,-126.465,65.918,21.973,-42.480,0.000
1605307698.084,-137.695,-88.379,-43.945,-68.359,0.000
1605307698.088,60.059,-41.016,-26.855,20.508,0.000
1605307698.092,104.980,-42.969,-27.344,29.785,0.000
1605307698.096,-55.176,-61.523,-38.086,-47.852,0.000
1605307698.100,-201.172,-90.820,-57.129,-113.770,0.000
1605307698.104,-122.070,-67.871,-44.922,-66.406,0.000
1605307698.108,64.941,-43.457,-27.832,14.160,0.000
1605307698.112,125.000,-16.113,-23.438,32.227,0.000
1605307698.116,5.859,-15.137,-29.297,-26.367,0.000
1605307698.120,-186.035,-81.543,-49.316,-109.863,0.000
1605307698.123,-144.531,-46.387,-29.785,-79.102,0.000
1605307698.127,52.734,-20.508,-23.438,-0.488,0.000
1605307698.131,161.133,26.855,8.301,75.684,0.000
1605307698.135,86.426,83.008,51.270,74.707,0.000
1605307698.139,-169.922,-83.008,-34.180,-93.750,0.000
1605307698.143,-182.129,-101.562,-45.410,-112.305,0.000
1605307698.147,16.602,-26.855,-11.719,-6.348,0.000
1605307698.151,150.391,-5.371,-2.441,45.410,0.000
1605307698.155,27.832,-48.828,-29.785,-20.020,0.000
1605307698.159,-175.781,-98.633,-51.758,-102.539,0.000
1605307698.163,-174.805,-88.867,-45.410,-97.168,0.000
1605307698.166,0.977,-38.086,-25.879,-4.395,0.000
1605307698.170,249.023,160.645,89.355,162.109,0.000
1605307698.174,135.742,93.262,52.246,72.266,0.000
1605307698.178,-190.430,-117.676,-64.941,-115.234,0.000
1605307698.182,-220.215,-103.516,-55.176,-109.375,0.000
1605307698.186,-33.691,-55.664,-24.414,-20.996,0.000
1605307698.190,125.488,-0.977,-2.441,47.852,0.000
1605307698.194,59.082,-17.090,-27.344,-3.418,0.000
1605307698.198,-146.484,-78.613,-55.664,-96.191,0.000
1605307698.202,-210.449,-94.238,-51.270,-124.512,0.000
1605307698.205,-51.270,-32.715,-23.438,-44.922,0.000
1605307698.209,120.605,4.395,-8.789,44.922,0.000
1605307698.213,69.824,-35.156,-30.273,9.766,0.000
1605307698.217,-111.816,-53.711,-38.574,-72.754,0.000
1605307698.221,-217.773,-91.797,-62.012,-116.699,0.000
1605307698.225,-30.273,23.926,12.207,0.488,0.000
1605307698.229,250.977,205.078,114.746,171.387,0.000
1605307698.233,115.723,15.137,-6.348,44.434,0.000
1605307698.237,-125.977,-103.516,-64.941,-92.773,0.000
1605307698.241,-205.566,-82.031,-53.711,-126.953,0.000
1605307698.245,-87.402,-44.434,-28.809,-59.082,0.000
1605307698.248,83.008,-37.598,-19.043,28.320,0.000
1605307698.252,102.539,-27.832,-26.855,8.789,0.000
1605307698.256,-71.289,-60.547,-58.105,-78.613,0.000
1605307698.260,-208.496,-91.797,-65.430,-127.930,0.000
1605307698.264,41.504,145.020,109.375,62.500,0.000
1605307698.268,191.406,137.695,85.449,113.281,0.000
1605307698.272,77.637,-52.734,-49.805,-2.930,0.000
1605307698.276,-74.707,-83.008,-58.105,-71.289,0.000
1605307698.280,-212.891,-108.887,-63.477,-125.977,0.000
1605307698.284,-123.535,-61.035,-37.598,-59.570,0.000
1605307698.288,63.477,-20.020,-21.484,13.184,0.000
1605307698.291,118.164,-33.203,-35.156,12.695,0.000
1605307698.295,-12.207,-69.336,-60.059,-44.434,0.000
1605307698.299,-173.828,-71.289,-51.758,-108.887,0.000
1605307698.303,-138.672,-53.223,-31.738,-89.355,0.000
1605307698.307,48.828,-41.992,-14.160,6.836,0.000
1605307698.311,143.555,-7.812,-1.465,55.664,0.000
1605307698.315,-10.254,-55.176,-60.059,-41.992,0.000
1605307698.319,-130.371,1.953,-21.973,-68.359,0.000
1605307698.323,-10.742,139.160,89.844,35.645,0.000
1605307698.327,51.270,-2.930,1.465,11.230,0.000
1605307698.330,107.910,-53.711,-39.551,25.879,0.000
1605307698.334,19.043,-62.012,-44.434,-25.879,0.000
1605307698.338,-165.039,-97.168,-56.152,-107.910,0.000
1605307698.342,-172.852,-98.145,-45.898,-88.379,0.000
1605307698.346,8.789,-40.527,-28.320,-20.020,0.000
1605307698.350,125.977,-24.414,-16.602,26.855,0.000
1605307698.354,38.574,-49.316,-32.715,-9.277,0.000
1605307698.358,-16.602,135.742,61.035,21.973,0.000
1605307698.362,-77.637,92.773,44.434,-8.301,0.000
1605307698.366,-37.109,-71.777,-37.598,-38.574,0.000
1605307698.370,109.375,-42.480,-26.855,25.879,0.000
1605307698.373,48.828,-66.895,-55.176,-7.812,0.000
1605307698.377,-133.789,-91.797,-63.965,-82.520,0.000
1605307698.381,-200.684,-95.703,-55.176,-102.539,0.000
1605307698.385,-54.688,-59.570,-40.039,-35.645,0.000
1605307698.389,105.469,-43.457,-26.367,29.785,0.000
1605307698.393,88.867,-27.344,-25.391,16.113,0.000
1605307698.397,-104.004,-37.598,-41.504,-60.059,0.000
1605307698.401,-210.938,-79.102,-52.734,-104.980,0.000
1605307698.405,-68.848,-31.250,-18.555,-35.645,0.000
1605307698.409,95.703,-6.836,-14.160,25.391,0.000
1605307698.413,121.582,18.066,-5.859,42.969,0.000
1605307698.416,-5.371,60.547,22.949,16.113,0.000
1605307698.420,-196.777,-78.125,-41.992,-105.957,0.000
1605307698.424,-124.512,-84.473,-54.199,-78.613,0.000
1605307698.428,78.125,-11.230,-22.461,34.668,0.000
1605307698.432,99.121,-17.578,-24.414,28.320,0.000
1605307698.436,-68.359,-66.406,-56.641,-66.895,0.000
1605307698.440,-190.430,-72.266,-51.758,-99.609,0.000
1605307698.444,-119.141,-51.270,-24.902,-57.129,0.000
1605307698.448,66.895,-19.043,-7.324,19.531,0.000
1605307698.452,227.539,150.391,90.820,138.184,0.000
1605307698.455,35.156,59.570,43.457,23.926,0.000
1605307698.459,-229.980,-116.211,-54.199,-132.324,0.000
1605307698.463,-160.645,-84.961,-28.320,-87.891,0.000
1605307698.467,45.898,-52.246,-9.766,-0.488,0.000
1605307698.471,126.465,-17.578,-13.184,31.738,0.000
1605307698.475,-20.020,-51.758,-30.762,-21.973,0.000
1605307698.479,-192.871,-98.145,-46.875,-93.750,0.000
1605307698.483,-158.203,-70.801,-42.969,-84.473,0.000
1605307698.487,36.621,-13.184,-8.789,18.066,0.000
1605307698.491,128.418,-8.789,-4.395,60.059,0.000
1605307698.495,-13.184,-63.477,-37.598,-15.137,0.000
1605307698.498,-177.246,-97.656,-40.527,-86.426,0.000
1605307698.502,-171.875,-106.934,-41.016,-88.379,0.000
1605307698.506,42.480,-0.488,8.789,34.180,0.000
1605307698.510,205.566,125.000,52.734,127.930,0.000
1605307698.514,37.598,-21.484,-45.410,-3.418,0.000
1605307698.518,-162.598,-112.305,-62.012,-110.840,0.000
1605307698.522,-174.805,-79.590,-28.320,-96.680,0.000
1605307698.526,10.254,-13.184,-7.324,0.488,0.000
1605307698.530,137.695,6.348,-4.395,53.711,0.000
1605307698.534,42.480,-30.273,-33.691,-12.207,0.000
1605307698.538,-153.809,-82.031,-56.152,-96.680,0.000
1605307698.541,-209.473,-71.289,-45.410,-103.516,0.000
1605307698.545,56.152,110.840,58.105,59.570,0.000
1605307698.549,211.914,112.305,54.199,109.863,0.000
1605307698.553,64.453,-35.156,-33.203,-8.789,0.000
1605307698.557,-135.742,-96.191,-57.129,-93.750,0.000
1605307698.561,-200.195,-98.633,-54.199,-112.305,0.000
1605307698.565,-50.781,-40.527,-22.461,-44.922,0.000
1605307698.569,98.633,-20.020,-13.672,22.949,0.000
1605307698.573,69.336,-35.645,-35.645,-1.465,0.000
1605307698.577,-108.887,-86.914,-60.547,-92.285,0.000
1605307698.580,-202.148,-82.520,-47.363,-114.746,0.000
1605307698.584,-70.801,-27.344,-17.090,-41.504,0.000
1605307698.588,111.816,-0.977,-13.672,32.227,0.000
1605307698.592,106.934,-6.836,-21.484,30.762,0.000
1605307698.596,-92.285,-66.895,-49.316,-69.824,0.000
1605307698.600,-175.293,-25.879,-24.902,-92.773,0.000
1605307698.604,-21.484,76.660,35.156,6.836,0.000
1605307698.608,101.074,14.648,-7.324,36.133,0.000
1605307698.612,88.867,-35.645,-43.945,13.672,0.000
1605307698.616,-82.031,-72.754,-53.711,-70.312,0.000
1605307698.620,-208.496,-82.031,-52.734,-124.512,0.000
1605307698.623,-120.605,-60.059,-38.086,-76.660,0.000
1605307698.627,69.824,-20.020,-13.672,15.625,0.000
1605307698.631,117.676,-16.113,-21.973,39.551,0.000
1605307698.635,-32.227,-50.293,-42.480,-34.668,0.000
1605307698.639,-116.699,40.527,25.879,-39.062,0.000
1605307698.643,-78.613,49.316,30.762,-13.672,0.000
1605307698.647,54.688,-12.207,-13.672,13.184,0.000
1605307698.651,127.930,-21.973,-14.160,33.203,0.000
1605307698.655,-21.484,-56.641,-35.645,-34.668,0.000
1605307698.659,-180.176,-62.988,-47.852,-102.539,0.000
1605307698.663,-150.879,-65.430,-39.062,-79.102,0.000
1605307698.666,32.715,-32.715,-20.996,14.160,0.000
1605307698.670,134.277,-33.203,-20.020,41.504,0.000
1605307698.674,8.301,-42.480,-30.762,-14.648,0.000
1605307698.678,-168.457,-57.129,-40.527,-96.680,0.000
1605307698.682,-162.598,-68.848,-34.180,-95.703,0.000
1605307698.686,16.602,-9.766,-3.906,9.766,0.000
1605307698.690,120.605,-17.578,-12.695,43.457,0.000
1605307698.694,58.105,-0.977,-6.348,13.672,0.000
1605307698.698,-67.871,55.664,26.855,-27.344,0.000
1605307698.702,-170.410,-48.340,-27.832,-92.285,0.000
1605307698.705,-37.109,-59.082,-38.574,-29.297,0.000
1605307698.709,119.141,-28.320,-16.602,34.180,0.000
1605307698.713,55.664,-43.457,-23.438,-4.395,0.000
1605307698.717,-142.090,-91.797,-42.969,-88.379,0.000
1605307698.721,-198.242,-68.359,-35.645,-104.004,0.000
1605307698.725,-35.156,-26.367,-16.113,-29.785,0.000
1605307698.729,119.141,-17.090,-11.230,39.551,0.000
1605307698.733,141.602,119.629,24.902,66.895,0.000
1605307698.737,-60.059,50.781,-7.324,-30.273,0.000
1605307698.741,-211.914,-100.098,-52.246,-115.723,0.000
1605307698.745,-72.754,-59.082,-26.855,-44.922,0.000
1605307698.748,114.258,-24.902,-13.672,29.785,0.000
1605307698.752,114.258,-17.578,-11.719,15.625,0.000
1605307698.756,-89.355,-62.988,-34.180,-73.730,0.000
1605307698.760,-210.938,-88.867,-44.434,-116.211,0.000
1605307698.764,-82.031,-56.152,-21.973,-57.129,0.000
1605307698.768,105.469,-5.371,-11.719,32.227,0.000
1605307698.772,97.656,-7.324,-24.902,35.156,0.000
1605307698.776,-83.008,-64.453,-46.387,-55.664,0.000
1605307698.780,-201.172,-81.055,-45.410,-100.586,0.000
1605307698.784,-115.723,-62.012,-36.621,-61.523,0.000
1605307698.788,105.957,21.973,15.625,44.434,0.000
1605307698.791,177.734,79.590,51.758,93.750,0.000
1605307698.795,-43.945,-69.336,-36.621,-40.527,0.000
1605307698.799,-210.938,-114.746,-64.453,-126.953,0.000
1605307698.803,-127.441,-50.781,-22.461,-73.242,0.000
1605307698.807,69.824,-1.465,1.953,24.414,0.000
1605307698.811,118.652,-27.344,-9.277,31.250,0.000
1605307698.815,-41.992,-65.918,-25.391,-46.387,0.000
1605307698.819,-200.684,-86.914,-42.480,-116.699,0.000
1605307698.823,-144.043,-65.918,-36.621,-90.332,0.000
1605307698.827,113.770,96.191,47.363,68.848,0.000
1605307698.830,183.105,88.379,40.527,83.984,0.000
1605307698.834,-20.508,-58.105,-42.480,-38.574,0.000
1605307698.838,-183.105,-89.844,-64.453,-103.027,0.000
1605307698.842,-156.250,-78.613,-41.016,-83.496,0.000
1605307698.846,34.180,-22.461,-3.906,8.789,0.000
1605307698.850,148.438,-0.977,-7.812,44.922,0.000
1605307698.854,17.090,-45.898,-30.762,-21.973,0.000
1605307698.858,-177.246,-109.863,-51.758,-110.352,0.000
1605307698.862,-176.758,-68.848,-39.551,-102.539,0.000
1605307698.866,-0.488,-5.371,-12.695,-9.277,0.000
1605307698.870,132.324,-7.812,-8.789,44.922,0.000
1605307698.873,60.059,-8.301,-23.926,10.742,0.000
1605307698.877,-148.438,-75.195,-70.312,-94.238,0.000
1605307698.881,-141.602,-4.395,-2.930,-61.523,0.000
1605307698.885,117.676,178.223,111.328,101.074,0.000
1605307698.889,161.621,39.551,5.859,72.754,0.000
1605307698.893,42.969,-66.895,-61.523,-13.184,0.000
1605307698.897,-127.441,-78.613,-52.734,-91.309,0.000
1605307698.901,-179.688,-83.496,-40.039,-95.703,0.000
1605307698.905,-32.227,-48.828,-24.414,-31.738,0.000
1605307698.909,113.281,-0.488,-16.113,29.297,0.000
1605307698.913,72.266,-30.273,-21.484,10.742,0.000
1605307698.916,-112.305,-68.848,-46.387,-80.566,0.000
1605307698.920,-140.625,57.129,-2.930,-59.570,0.000
1605307698.924,-4.395,60.547,17.090,-1.465,0.000
1605307698.928,111.816,-5.859,-11.719,35.645,0.000
1605307698.932,84.961,-20.996,-20.508,28.320,0.000
1605307698.936,-86.914,-74.219,-37.109,-64.453,0.000
1605307698.940,-193.848,-73.730,-40.527,-103.516,0.000
1605307698.944,-90.332,-29.297,-22.461,-41.016,0.000
1605307698.948,97.656,4.395,-13.672,39.062,0.000
1605307698.952,107.422,-29.785,-24.902,35.156,0.000
1605307698.955,-59.082,-49.316,-39.551,-43.457,0.000
1605307698.959,-190.430,-49.316,-47.363,-100.098,0.000
1605307698.963,-114.258,-37.109,-34.180,-51.270,0.000
1605307698.967,85.449,19.043,-7.812,38.574,0.000
1605307698.971,106.934,-20.996,-27.344,31.738,0.000
1605307698.975,-26.855,-20.020,-19.531,-21.484,0.000
1605307698.979,-110.840,62.012,37.109,-36.133,0.000
1605307698.983,-115.723,-33.691,-10.742,-57.617,0.000
1605307698.987,38.574,-42.969,-22.949,1.465,0.000
1605307698.991,114.746,-16.113,-14.160,27.832,0.000
1605307698.995,-31.738,-60.547,-38.574,-51.758,0.000
1605307698.998,-194.336,-102.539,-57.129,-126.465,0.000
1605307699.002,-148.438,-51.758,-31.250,-91.797,0.000
1605307699.006,28.320,-1.465,-11.719,-12.695,0.000
1605307699.010,99.609,-6.836,-27.344,-2.930,0.000
1605307699.014,46.875,94.727,23.926,4.883,0.000
1605307699.018,-133.789,30.762,8.789,-72.754,0.000
1605307699.022,-219.727,-90.820,-46.387,-143.555,0.000
1605307699.026,-50.293,-41.992,-25.879,-75.195,0.000
1605307699.030,49.805,-33.691,-23.438,-40.039,0.000
1605307699.034,-50.781,-45.898,-32.227,-90.820,0.000
1605307699.038,-252.441,-69.824,-46.387,-182.617,0.000
1605307699.041,-305.176,-67.383,-48.828,-203.125,0.000
1605307699.045,-134.277,-46.387,-23.926,-130.371,0.000
1605307699.049,-2.441,-20.508,-1.953,-78.613,0.000
1605307699.053,-81.543,-40.039,-27.344,-124.023,0.000
1605307699.057,-275.879,-112.305,-57.617,-201.172,0.000
1605307699.061,-311.523,-98.633,-40.527,-196.777,0.000
1605307699.065,-150.879,-48.340,-15.137,-125.488,0.000
1605307699.069,1.465,6.348,20.020,-34.668,0.000
1605307699.073,17.090,47.852,38.086,-10.742,0.000
1605307699.077,-217.773,-103.027,-40.527,-152.832,0.000
1605307699.080,-321.289,-140.625,-47.363,-188.477,0.000
1605307699.084,-148.926,-47.363,1.953,-92.773,0.000
1605307699.088,18.555,-25.879,8.789,-13.184,0.000
1605307699.092,1.953,-52.734,-5.859,-8.301,0.000
1605307699.096,-165.527,-89.844,-24.902,-91.797,0.000
1605307699.100,-261.230,-103.027,-29.297,-140.137,0.000
1605307699.104,-115.723,-82.031,-14.648,-49.316,0.000
1605307699.108,125.488,11.719,66.895,101.074,0.000
1605307699.112,104.004,14.648,53.711,83.008,0.000
1605307699.116,-117.676,-94.238,-34.668,-47.852,0.000
1605307699.120,-222.168,-121.094,-44.922,-86.426,0.000
1605307699.123,-104.492,-90.332,-24.414,-16.113,0.000
1605307699.127,86.914,-41.016,-1.953,64.941,0.000
1605307699.131,110.352,-46.875,-13.672,63.965,0.000
1605307699.135,-41.992,-94.238,-29.785,-0.977,0.000
1605307699.139,-173.828,-121.582,-33.203,-57.617,0.000
1605307699.143,-82.031,-77.637,-10.254,-4.395,0.000
1605307699.147,117.188,-34.180,2.930,95.703,0.000
1605307699.151,156.250,-46.387,-5.859,105.957,0.000
1605307699.155,5.371,-69.824,-10.742,27.344,0.000
1605307699.159,-161.621,-88.867,-35.645,-57.129,0.000
1605307699.163,-80.078,-43.945,-5.859,3.906,0.000
1605307699.166,157.227,33.203,50.293,129.395,0.000
1605307699.170,173.340,-13.672,9.766,108.398,0.000
1605307699.174,13.184,-62.012,-32.227,15.625,0.000
1605307699.178,-139.648,-83.984,-42.480,-44.922,0.000
1605307699.182,-100.586,-64.453,-24.902,-15.137,0.000
1605307699.186,93.262,-19.043,-4.395,63.965,0.000
1605307699.190,183.105,-2.930,-7.324,100.098,0.000
1605307699.194,63.477,-41.016,-32.227,44.434,0.000
1605307699.198,-113.281,-83.496,-49.316,-43.945,0.000
1605307699.202,-46.387,3.418,22.461,21.973,0.000
1605307699.205,135.254,47.363,33.691,99.121,0.000
1605307699.209,175.293,-4.883,-10.254,82.520,0.000
1605307699.213,54.199,-47.363,-20.996,25.391,0.000
1605307699.217,-122.559,-70.801,-46.387,-48.828,0.000
1605307699.221,-134.277,-51.270,-43.945,-46.387,0.000
1605307699.225,34.668,-5.859,-5.859,21.484,0.000
1605307699.229,159.180,7.812,-2.930,65.430,0.000
1605307699.233,65.918,-41.504,-24.414,19.531,0.000
1605307699.237,-106.445,-45.898,-29.297,-63.477,0.000
1605307699.241,-145.996,-29.785,-25.391,-62.500,0.000
1605307699.245,-0.488,-12.207,-14.648,15.625,0.000
1605307699.248,154.297,13.184,-6.836,65.918,0.000
1605307699.252,92.773,-10.742,-21.484,18.555,0.000
1605307699.256,-79.102,-42.969,-26.367,-54.688,0.000
1605307699.260,-130.859,-45.898,1.953,-39.062,0.000
1605307699.264,-20.508,-31.250,-1.953,-6.348,0.000
1605307699.268,124.512,1.953,-11.719,38.086,0.000
1605307699.272,84.961,-11.719,-21.484,22.461,0.000
1605307699.276,-104.980,-61.523,-42.480,-69.336,0.000
1605307699.280,-192.871,-82.031,-55.176,-108.887,0.000
1605307699.284,-51.758,-34.668,-32.715,-42.969,0.000
1605307699.288,124.023,6.348,-0.488,35.645,0.000
1605307699.291,116.699,9.766,-6.836,32.715,0.000
1605307699.295,-12.207,14.648,3.418,-4.395,0.000
1605307699.299,-132.324,-24.414,-9.277,-56.152,0.000
1605307699.303,-68.848,-29.785,-21.973,-48.340,0.000
1605307699.307,113.281,2.930,-6.348,37.109,0.000
1605307699.311,134.277,-13.184,-12.207,46.387,0.000
1605307699.315,-49.805,-53.711,-28.320,-41.992,0.000
1605307699.319,-197.754,-76.660,-49.805,-112.305,0.000
1605307699.323,-99.121,-52.734,-37.598,-57.129,0.000
1605307699.327,94.727,-24.902,-6.348,38.086,0.000
1605307699.330,159.180,11.230,-4.395,61.035,0.000
1605307699.334,3.906,-25.391,-22.949,1.953,0.000
1605307699.338,-165.039,-86.426,-36.133,-71.777,0.000
1605307699.342,-95.215,-37.598,-15.137,-33.691,0.000
1605307699.346,97.656,16.113,5.859,62.012,0.000
1605307699.350,184.082,27.344,3.906,101.074,0.000
1605307699.354,77.148,12.695,5.371,63.965,0.000
1605307699.358,-122.559,-61.035,-29.297,-50.781,0.000
1605307699.362,-130.371,-66.406,-29.297,-58.594,0.000
1605307699.366,59.082,-21.973,-3.418,38.086,0.000
1605307699.370,156.250,-11.230,-1.953,78.613,0.000
1605307699.373,33.691,-41.504,-17.578,8.301,0.000
1605307699.377,-139.648,-73.242,-33.691,-81.055,0.000
1605307699.381,-145.508,-72.754,-28.809,-65.918,0.000
1605307699.385,33.691,-19.531,-10.254,25.879,0.000
1605307699.389,175.293,62.988,14.648,89.844,0.000
1605307699.393,74.219,19.043,0.000,36.133,0.000
1605307699.397,-137.695,-88.379,-39.551,-72.754,0.000
1605307699.401,-169.922,-90.820,-41.016,-83.496,0.000
1605307699.405,7.812,-28.320,-20.996,7.812,0.000
1605307699.409,151.367,3.906,4.395,75.684,0.000
1605307699.413,69.336,-38.574,-14.648,24.414,0.000
1605307699.416,-113.770,-77.148,-54.199,-61.523,0.000
1605307699.420,-158.203,-78.125,-43.457,-68.359,0.000
1605307699.424,-11.230,-14.160,-8.789,-5.859,0.000
1605307699.428,135.254,14.648,-1.465,52.246,0.000
1605307699.432,83.008,-23.438,-22.949,19.043,0.000
1605307699.436,-102.539,-57.129,-39.551,-62.500,0.000
1605307699.440,-187.500,-62.012,-41.992,-86.914,0.000
1605307699.444,-22.461,-8.789,-17.090,-3.418,0.000
1605307699.448,177.246,50.781,19.043,85.449,0.000
1605307699.452,116.211,-1.953,-5.859,45.898,0.000
1605307699.455,-85.449,-72.754,-40.039,-50.781,0.000
1605307699.459,-180.176,-83.496,-40.527,-90.332,0.000
1605307699.463,-52.246,-20.996,-13.672,-23.438,0.000
1605307699.467,125.488,15.625,-0.488,50.293,0.000
1605307699.471,121.582,-0.488,-13.672,40.527,0.000
1605307699.475,-56.641,-52.246,-34.668,-46.387,0.000
1605307699.479,-182.129,-79.102,-42.969,-106.934,0.000
1605307699.483,-32.715,42.480,35.645,8.301,0.000
1605307699.487,171.387,88.379,55.664,97.168,0.000
1605307699.491,140.137,-5.371,-8.789,44.922,0.000
1605307699.495,-40.039,-56.641,-39.062,-42.969,0.000
1605307699.498,-173.340,-72.754,-50.781,-102.051,0.000
1605307699.502,-94.238,-38.574,-30.273,-54.199,0.000
1605307699.506,85.938,-4.883,-12.207,37.109,0.000
1605307699.510,140.137,-2.441,-6.836,59.570,0.000
1605307699.514,-0.977,-43.945,-25.391,-19.531,0.000
1605307699.518,-170.410,-60.059,-40.527,-92.285,0.000
1605307699.522,-117.676,-19.531,-25.879,-54.688,0.000
1605307699.526,71.777,3.418,-6.348,28.809,0.000
1605307699.530,137.207,-4.395,1.953,56.641,0.000
1605307699.534,-16.113,-48.828,-40.527,-29.785,0.000
1605307699.538,-161.621,-57.129,-44.922,-98.633,0.000
1605307699.541,-93.750,8.301,8.789,-48.340,0.000
1605307699.545,43.945,12.695,1.465,11.230,0.000
1605307699.549,118.164,-15.137,-10.742,34.180,0.000
1605307699.553,17.090,-45.410,-31.250,-24.902,0.000
1605307699.557,-147.461,-57.129,-42.480,-101.074,0.000
1605307699.561,-148.926,-62.988,-38.574,-99.121,0.000
1605307699.565,22.461,-20.020,-17.578,-4.395,0.000
1605307699.569,131.348,-0.977,-13.672,50.781,0.000
1605307699.573,29.785,-36.133,-36.621,-16.602,0.000
1605307699.577,-149.902,-51.758,-47.363,-90.332,0.000
1605307699.580,-184.082,-51.270,-41.992,-83.984,0.000
1605307699.584,-13.672,-23.438,-16.602,-18.066,0.000
1605307699.588,125.000,-1.465,0.000,35.645,0.000
1605307699.592,42.969,-30.273,-18.066,1.465,0.000
1605307699.596,-134.766,-57.617,-47.363,-87.402,0.000
1605307699.600,-191.406,-56.641,-52.734,-107.422,0.000
1605307699.604,-41.016,-28.809,-17.578,-21.484,0.000
1605307699.608,126.953,-15.137,-4.395,48.828,0.000
1605307699.612,83.008,-14.160,-17.578,25.879,0.000
1605307699.616,-104.492,-46.875,-33.203,-61.035,0.000
1605307699.620,-191.895,-73.730,-45.898,-104.980,0.000
1605307699.623,-56.152,-11.719,-17.578,-43.457,0.000
1605307699.627,109.375,16.602,-0.977,32.227,0.000
1605307699.631,102.051,1.953,-5.371,33.691,0.000
1605307699.635,-48.828,-3.418,-7.324,-34.180,0.000
1605307699.639,-191.895,-68.848,-29.297,-102.539,0.000
1605307699.643,-90.332,-53.711,-20.996,-44.922,0.000
1605307699.647,114.258,-1.465,-5.371,46.875,0.000
1605307699.651,117.676,-8.301,-13.672,47.852,0.000
1605307699.655,-68.848,-70.801,-41.016,-26.855,0.000
1605307699.659,-191.406,-79.590,-53.711,-85.938,0.000
1605307699.663,-89.355,-28.320,-19.531,-47.363,0.000
1605307699.666,100.586,5.859,7.324,40.039,0.000
1605307699.670,177.246,82.520,37.109,103.027,0.000
1605307699.674,6.348,35.156,15.625,11.230,0.000
1605307699.678,-185.547,-73.730,-40.039,-107.910,0.000
1605307699.682,-119.141,-57.129,-31.250,-65.430,0.000
1605307699.686,70.801,-15.137,-4.883,34.180,0.000
1605307699.690,140.625,10.254,-2.930,47.363,0.000
1605307699.694,-20.020,-30.762,-33.203,-38.574,0.000
1605307699.698,-186.035,-67.871,-44.434,-105.469,0.000
1605307699.702,-128.418,-54.199,-26.855,-77.637,0.000
1605307699.705,78.613,17.578,-6.348,20.020,0.000
1605307699.709,155.273,24.414,-2.930,61.035,0.000
1605307699.713,0.977,-50.781,-31.250,-16.113,0.000
1605307699.717,-169.922,-62.988,-45.898,-88.379,0.000
1605307699.721,-150.391,-54.199,-27.344,-74.219,0.000
1605307699.725,52.734,3.906,12.207,33.203,0.000
1605307699.729,188.477,79.590,41.504,113.281,0.000
1605307699.733,26.367,-30.273,-19.043,5.371,0.000
1605307699.737,-180.664,-96.191,-58.105,-104.004,0.000
1605307699.741,-178.711,-68.848,-33.691,-99.609,0.000
1605307699.745,11.719,-16.602,-0.977,-3.418,0.000
1605307699.748,138.184,1.953,-1.465,48.340,0.000
1605307699.752,35.156,-36.621,-29.297,-12.207,0.000
1605307699.756,-144.531,-73.242,-47.852,-95.703,0.000
1605307699.760,-175.781,-57.617,-34.180,-101.074,0.000
1605307699.764,-3.906,34.668,-2.930,-3.418,0.000
1605307699.768,116.211,37.109,-4.395,43.945,0.000
1605307699.772,48.340,-35.156,-20.996,0.000,0.000
1605307699.776,-128.418,-78.125,-45.898,-82.520,0.000
1605307699.780,-198.242,-79.590,-50.293,-108.398,0.000
1605307699.784,-40.527,-24.414,-18.555,-34.668,0.000
1605307699.788,120.605,0.488,5.371,37.598,0.000
1605307699.791,70.801,-33.203,-7.812,7.812,0.000
1605307699.795,-113.281,-80.566,-36.621,-71.289,0.000
1605307699.799,-187.988,-60.547,-29.297,-101.074,0.000
1605307699.803,-39.551,-21.484,-8.789,-29.785,0.000
1605307699.807,120.117,-7.324,-5.371,48.828,0.000
1605307699.811,90.820,-2.441,-11.230,23.926,0.000
1605307699.815,-88.867,-44.434,-28.809,-61.035,0.000
1605307699.819,-208.496,-68.359,-42.969,-111.816,0.000
1605307699.823,-106.445,-31.738,-34.180,-69.336,0.000
1605307699.827,97.168,-2.441,-4.883,38.574,0.000
1605307699.830,123.535,2.930,-9.766,39.551,0.000
1605307699.834,-52.246,-39.551,-37.598,-58.105,0.000
1605307699.838,-188.477,-79.102,-38.086,-109.863,0.000
1605307699.842,-94.238,-43.457,-18.066,-44.922,0.000
1605307699.846,90.332,14.648,-1.953,40.527,0.000
1605307699.850,121.582,-0.488,6.836,36.133,0.000
1605307699.854,-38.086,-52.734,-14.648,-40.527,0.000
1605307699.858,-174.805,-36.133,-29.785,-91.797,0.000
1605307699.862,-103.027,-1.465,-9.766,-47.852,0.000
1605307699.866,82.520,2.930,7.812,38.574,0.000
1605307699.870,137.695,6.836,2.441,61.035,0.000
1605307699.873,-14.648,-31.250,-21.484,-21.484,0.000
1605307699.877,-175.781,-60.059,-32.715,-93.262,0.000
1605307699.881,-142.090,-55.176,-20.508,-72.266,0.000
1605307699.885,56.152,-15.137,0.000,18.066,0.000
1605307699.889,142.578,-7.324,-0.488,58.594,0.000
1605307699.893,0.488,-23.438,-28.809,-8.789,0.000
1605307699.897,-169.922,-54.688,-38.086,-85.938,0.000
1605307699.901,-165.039,-66.895,-26.855,-82.031,0.000
1605307699.905,25.879,-10.254,-9.277,4.883,0.000
1605307699.909,138.672,2.441,1.465,54.688,0.000
1605307699.913,18.555,-46.875,-19.043,-1.465,0.000
1605307699.916,-158.691,-74.219,-34.180,-87.402,0.000
1605307699.920,-170.410,-65.918,-27.344,-83.008,0.000
1605307699.924,-1.953,-20.020,-6.836,4.883,0.000
1605307699.928,131.836,18.066,1.465,54.199,0.000
1605307699.932,47.363,-3.418,-15.625,0.488,0.000
1605307699.936,-140.625,-50.293,-35.645,-84.961,0.000
1605307699.940,-176.270,-50.781,-31.738,-86.914,0.000
1605307699.944,-19.531,-16.602,-21.484,-10.254,0.000
1605307699.948,125.977,-0.977,-12.695,39.062,0.000
1605307699.952,108.398,63.965,21.484,40.039,0.000
1605307699.955,-79.590,22.461,-5.371,-48.340,0.000
1605307699.959,-190.918,-60.059,-49.805,-106.445,0.000
1605307699.963,-52.246,-29.297,-27.344,-23.926,0.000
1605307699.967,119.141,-1.465,-4.883,47.363,0.000
1605307699.971,85.449,-7.324,-18.066,20.508,0.000
1605307699.975,-102.539,-58.594,-47.363,-65.918,0.000
1605307699.979,-194.336,-79.590,-35.645,-98.145,0.000
1605307699.983,-70.801,-29.785,-19.531,-28.320,0.000
1605307699.987,111.328,28.320,-3.906,51.758,0.000
1605307699.991,96.680,3.906,-0.488,29.297,0.000
1605307699.995,-90.820,-60.059,-23.438,-62.988,0.000
1605307699.998,-191.895,-54.688,-30.762,-98.145,0.000
1605307700.002,-83.496,-20.996,-14.160,-44.922,0.000
1605307700.006,130.371,30.273,18.066,52.246,0.000
1605307700.010,180.176,52.246,23.926,78.613,0.000
1605307700.014,-40.527,-49.316,-32.715,-39.062,0.000
1605307700.018,-182.617,-77.637,-43.457,-111.328,0.000
1605307700.022,-90.332,-34.668,-19.531,-60.059,0.000
1605307700.026,85.938,-8.301,-8.789,33.203,0.000
1605307700.030,121.582,-7.812,-12.207,51.270,0.000
1605307700.034,-45.410,-41.992,-33.691,-20.508,0.000
1605307700.038,-198.730,-88.867,-60.059,-100.586,0.000
1605307700.041,-134.277,-52.734,-45.898,-79.590,0.000
1605307700.045,131.348,85.449,49.316,78.613,0.000
1605307700.049,198.730,72.754,42.480,99.609,0.000
1605307700.053,-23.438,-53.711,-41.992,-37.109,0.000
1605307700.057,-192.383,-89.355,-50.293,-99.121,0.000
1605307700.061,-159.180,-89.844,-33.691,-80.566,0.000
1605307700.065,43.457,-34.180,-17.090,0.488,0.000
1605307700.069,147.461,3.906,-20.020,43.945,0.000
1605307700.073,14.648,-40.527,-37.598,-13.184,0.000
1605307700.077,-152.832,-80.566,-50.781,-102.539,0.000
1605307700.080,-141.113,-41.992,-35.156,-83.008,0.000
1605307700.084,17.090,-5.859,-12.695,4.395,0.000
1605307700.088,136.719,-5.371,-11.230,38.574,0.000
1605307700.092,14.160,-43.945,-33.203,-14.160,0.000
1605307700.096,-177.246,-88.379,-54.688,-101.562,0.000
1605307700.100,-167.969,-37.109,-43.945,-94.727,0.000
1605307700.104,20.020,46.387,-9.766,7.324,0.000
1605307700.108,136.719,17.090,0.977,50.293,0.000
1605307700.112,46.875,-30.762,-25.879,6.348,0.000
1605307700.116,-121.582,-60.059,-55.664,-74.219,0.000
1605307700.120,-150.879,-53.223,-25.879,-76.660,0.000
1605307700.123,-2.930,-21.484,-1.953,0.488,0.000
1605307700.127,139.648,12.207,-6.348,51.270,0.000
1605307700.131,79.102,-9.766,-16.602,12.207,0.000
1605307700.135,-117.188,-59.570,-38.086,-86.914,0.000
1605307700.139,-138.672,-51.758,-1.953,-58.105,0.000
1605307700.143,-0.488,-19.531,14.648,3.418,0.000
1605307700.147,122.070,4.883,-7.324,34.180,0.000
1605307700.151,86.914,-10.254,-19.531,20.508,0.000
1605307700.155,-89.844,-50.293,-41.992,-57.617,0.000
1605307700.159,-177.734,-59.082,-47.852,-93.262,0.000
1605307700.163,-69.336,-21.484,-22.949,-35.645,0.000
1605307700.166,110.840,17.090,-4.395,45.410,0.000
1605307700.170,104.004,-15.625,-20.996,35.156,0.000
1605307700.174,-80.566,-38.086,-35.645,-49.316,0.000
1605307700.178,-193.848,-48.828,-37.598,-99.121,0.000
1605307700.182,-96.680,-36.621,-23.926,-52.246,0.000
1605307700.186,91.309,10.254,-3.418,28.809,0.000
1605307700.190,102.539,5.859,-25.391,27.344,0.000
1605307700.194,-41.992,-45.410,-37.109,-35.156,0.000
1605307700.198,-142.090,-80.078,-2.930,-69.336,0.000
1605307700.202,-102.051,-45.410,-18.555,-62.500,0.000
1605307700.205,86.426,6.836,-22.461,26.855,0.000
1605307700.209,140.137,-0.488,-9.766,47.363,0.000
1605307700.213,-25.879,-31.738,-18.066,-31.250,0.000
1605307700.217,-178.711,-53.711,-40.527,-93.262,0.000
1605307700.221,-128.418,-33.691,-42.969,-63.477,0.000
1605307700.225,51.758,1.465,-16.113,12.695,0.000
1605307700.229,118.164,6.348,-7.324,31.250,0.000
1605307700.233,-0.488,-48.828,-10.742,-15.137,0.000
1605307700.237,-161.621,-75.684,-19.043,-80.078,0.000
1605307700.241,-138.672,-29.785,-23.926,-78.125,0.000
1605307700.245,40.039,5.859,-18.555,3.906,0.000
1605307700.248,124.512,-6.836,-19.043,46.875,0.000
1605307700.252,13.184,-34.668,-31.738,-15.625,0.000
1605307700.256,-158.691,-52.246,-38.574,-96.191,0.000
1605307700.260,-154.785,-46.875,-25.391,-90.332,0.000
1605307700.264,22.461,-17.578,-9.277,-1.953,0.000
1605307700.268,142.090,25.879,-6.348,51.758,0.000
1605307700.272,45.898,1.465,-20.996,-5.859,0.000
1605307700.276,-150.391,-54.199,-39.062,-89.355,0.000
1605307700.280,-162.109,-31.738,-28.809,-82.520,0.000
1605307700.284,6.836,15.625,-12.207,-12.695,0.000
1605307700.288,153.320,7.812,9.766,50.781,0.000
1605307700.291,101.074,-46.875,7.812,30.273,0.000
1605307700.295,-119.141,-74.219,-38.086,-81.055,0.000
1605307700.299,-187.500,-53.711,-41.016,-99.609,0.000
1605307700.303,-28.809,-12.695,-17.578,-19.531,0.000
1605307700.307,126.465,12.207,2.441,56.641,0.000
1605307700.311,80.566,-16.113,-14.160,19.043,0.000
1605307700.315,-109.863,-60.059,-51.270,-78.613,0.000
1605307700.319,-184.570,-55.176,-33.691,-89.355,0.000
1605307700.323,-37.598,-1.953,-3.418,-20.020,0.000
1605307700.327,148.926,20.020,19.531,68.848,0.000
1605307700.330,125.488,-4.883,7.812,40.039,0.000
1605307700.334,-81.543,-34.180,-29.785,-69.824,0.000
1605307700.338,-189.941,-54.199,-41.504,-100.098,0.000
1605307700.342,-72.266,-43.457,-18.555,-39.551,0.000
1605307700.346,106.934,1.465,4.883,48.340,0.000
1605307700.350,109.863,12.695,-20.508,38.574,0.000
1605307700.354,-70.312,-35.645,-43.945,-59.082,0.000
1605307700.358,-182.617,-61.523,-35.645,-104.980,0.000
1605307700.362,-82.031,-15.625,-18.555,-49.805,0.000
1605307700.366,96.680,16.602,-0.977,33.203,0.000
1605307700.370,107.910,-1.953,-13.184,38.574,0.000
1605307700.373,-58.594,-42.480,-34.180,-39.062,0.000
1605307700.377,-194.824,-54.688,-33.691,-96.191,0.000
1605307700.381,-131.348,-58.105,-30.273,-62.500,0.000
1605307700.385,65.430,-61.035,-12.695,11.719,0.000
1605307700.389,129.883,-7.812,-6.348,29.785,0.000
1605307700.393,-26.855,-25.879,-23.926,-41.504,0.000
1605307700.397,-186.035,-57.617,-33.203,-96.191,0.000
1605307700.401,-130.371,-29.785,-16.113,-62.012,0.000
1605307700.405,63.477,16.113,2.930,9.766,0.000
1605307700.409,140.137,16.113,4.395,43.945,0.000
1605307700.413,7.324,-22.461,-20.020,-8.301,0.000
1605307700.416,-158.203,-34.180,-41.504,-91.797,0.000
1605307700.420,-136.230,-87.891,-25.391,-69.824,0.000
1605307700.424,46.875,-41.992,2.441,33.203,0.000
1605307700.428,137.207,41.016,0.977,62.500,0.000
1605307700.432,19.531,-14.160,-22.461,-11.230,0.000
1605307700.436,-145.020,-51.270,-40.527,-91.309,0.000
1605307700.440,-155.762,-39.062,-26.855,-81.055,0.000
1605307700.444,14.648,-7.812,-3.418,6.836,0.000
1605307700.448,145.020,17.578,-3.418,58.105,0.000
1605307700.452,49.316,-13.184,-23.438,-8.301,0.000
1605307700.455,-138.672,-37.109,-33.691,-91.797,0.000
1605307700.459,-165.039,-32.715,-20.020,-90.332,0.000
1605307700.463,2.930,-1.953,-1.953,-8.789,0.000
1605307700.467,142.578,17.090,-0.977,48.828,0.000
1605307700.471,64.453,1.465,-17.090,8.789,0.000
1605307700.475,-126.953,-53.711,-35.156,-72.266,0.000
1605307700.479,-184.570,-90.820,-28.320,-94.238,0.000
1605307700.483,-22.949,-29.297,-8.301,-20.996,0.000
1605307700.487,139.648,16.602,1.953,50.781,0.000
1605307700.491,80.078,5.371,-8.789,17.090,0.000
1605307700.495,-106.445,-41.992,-37.598,-66.895,0.000
1605307700.498,-192.383,-66.895,-41.504,-96.191,0.000
1605307700.502,-52.734,-18.555,-12.695,-35.645,0.000
1605307700.506,121.582,19.043,3.418,48.340,0.000
1605307700.510,102.539,1.953,-18.555,23.926,0.000
1605307700.514,-40.039,-32.227,-8.789,-41.016,0.000
1605307700.518,-149.902,-43.945,-2.441,-79.102,0.000
1605307700.522,-77.637,-7.812,-14.160,-44.434,0.000
1605307700.526,101.562,9.766,-0.977,31.738,0.000
1605307700.530,104.492,-19.043,-9.277,28.809,0.000
1605307700.534,-81.055,-45.410,-35.156,-56.152,0.000
1605307700.538,-209.473,-56.641,-41.504,-108.887,0.000
1605307700.541,-107.910,-35.156,-15.137,-53.711,0.000
1605307700.545,78.613,-9.766,0.977,15.625,0.000
1605307700.549,119.141,12.207,-10.254,24.414,0.000
1605307700.553,-40.527,-15.625,-28.320,-42.480,0.000
1605307700.557,-185.547,-62.500,-41.504,-106.934,0.000
1605307700.561,-108.887,-18.555,-25.391,-62.012,0.000
1605307700.565,63.965,29.785,-10.254,11.230,0.000
1605307700.569,124.023,4.883,-12.207,37.598,0.000
1605307700.573,-1.953,-39.062,-14.160,-11.719,0.000
1605307700.577,-176.270,-74.219,-38.574,-99.121,0.000
1605307700.580,-144.043,-53.711,-34.668,-75.684,0.000
1605307700.584,49.805,2.441,-12.207,16.602,0.000
1605307700.588,128.906,5.859,-18.066,35.645,0.000
1605307700.592,-9.766,-41.992,-41.992,-33.203,0.000
1605307700.596,-179.199,-68.359,-55.664,-108.887,0.000
1605307700.600,-158.203,-51.270,-43.945,-85.449,0.000
1605307700.604,33.203,-16.113,-15.137,10.742,0.000
1605307700.608,99.121,31.250,-46.387,12.695,0.000
1605307700.612,-9.277,3.418,-59.082,-49.316,0.000
1605307700.616,-154.297,-61.035,-43.457,-95.215,0.000
1605307700.620,-169.434,-54.688,-37.109,-86.426,0.000
1605307700.623,3.906,-30.273,-12.695,-14.648,0.000
1605307700.627,126.953,-2.930,-1.465,28.809,0.000
1605307700.631,42.969,-20.996,-20.020,-0.488,0.000
1605307700.635,-128.906,-66.895,-39.551,-70.312,0.000
1605307700.639,-160.645,-61.035,-29.785,-82.031,0.000
1605307700.643,14.160,1.465,-4.395,3.418,0.000
1605307700.647,158.691,27.832,5.371,62.500,0.000
1605307700.651,73.242,-19.531,-20.996,5.859,0.000
